\wavsamp version 5.1 (Wed Apr 20 08:45:04 PDT 2005)
\processing time 13:47:36 PST 11/02/2007
\character channelID = 1
\char HISTORY ========== Parameters supplied to RIDGE program below ==========
\char HISTORY PROCESS 2010/09/24 19:56:02
\char HISTORY ridge v1.15  (nl_and_params v1.9)
\char HISTORY WAVSAMP_FILE = ./cal/wavsamp.tbl
\char HISTORY PROFILE_FILE = profile.tbl
\char HISTORY PCT_LO = 25.0, percent
\char HISTORY PCT_HI = 75.0, percent
\char HISTORY NAMELIST_FILE = ./cdf/ridge.nl
\char HISTORY ========== RIDGE processing results summary below ==========
\char HISTORY FIND PEAKS: YES
\char HISTORY OVERALL Max DN=1076 at PCT=74.88, found in region 0
\char HISTORY MEDIAN FILTER not used.
\char HISTORY PERCENTAGE = 74.88  (cut was performed here)
\char HISTORY MAX_SIGNAL = 1076  (maximum signal value in DN)
\char HISTORY CUT_POS = 74.88  (pct at which the max signal was found)
\char HISTORY MAX_SIGNAL_IN_REGION = 0  (region where max signal was found)
\COMMENT ========== Keywords from PROFILE table file below ==========
\char NAXIS   =                    2 / STANDARD FITS FORMAT
\char NAXIS1  =                  128
\char NAXIS2  =                  128
\char ORIGIN  = 'Spitzer Science Center' / Organization generating this FITS file
\char CREATOR = 'S18.18.0'           / SW version used to create this FITS file
\char TELESCOP= 'Spitzer '
\char INSTRUME= 'IRSX    '
\char CAL_SET = 'C18.18PRE25.A'      / ID for the set of CAL files used
\char CHNLNUM =                    1 / 0=SL, 1=SH, 2=LL, 3=LH
\char FILENAME= 'IRSX.1.0006075648.0011.0000.01.mipl.fits' / File name
\char FILETYPE= 'fits-irs2d-flux'
\char EXPTYPE = 'sp      '           / Exposure Type
\char REQTYPE = 'AOR     '           / Request type (AOR,IER, or SER)
\char AOT_TYPE= 'IrsStare'           / Observation Template Type
\char AORLABEL= 'Orion Bar IRS'      / AOR Label
\char FOVNAME = 'IRS_Short-Hi_2nd_Position' / Field of View Name
\char READMODE= 'RAW     '           / Readout Mode
\char 
\char           / PROPOSAL INFORMATION
\char 
\char OBSRVR  = 'Francisca Markwick-Kemper' / Observer Name
\char OBSRVRID=                  143 / Observer ID of Principal Investigator
\char PROCYCL =                    3 / Proposal Cycle
\char PROGID  =                 1094 / Program ID
\char PROTITLE= 'The composition and evolution of dust in astrophysical environments'
\char PROGCAT =                   31 / Program Category
\char 
\char           / TIME AND EXPOSURE INFORMATION
\char 
\char DATE_OBS= '2004-03-23T09:21:11.897' / Date & time (UTC) at DCE start
\char MJD_OBS =        53087.3897999 / Program calkeywords trimmed-average result
\char UTCS_OBS=       133305678.7135 / Program calkeywords trimmed-average result
\char SCLK_OBS=       764500948.0265 / Program calkeywords trimmed-average result
\char SAMPTIME=               1.0486 / [sec] Sample integration time
\char REQMODE =                    5 / ID for mode or type of request
\char EXPSTRTC=            764500933 / Exposure Start Timestamp Coarse
\char EXPSTRTF=                55790 / Exposure Start Timestamp Fine
\char GRPARVTC=            764500944 / [sec] Coarse Spacecraft Group Time
\char GRPARVTF=                    0 / [sec] Fine Spacecraft Group Time
\char AIRSCMDN=                    2 / Commanded number of DCEs for IRS
\char AIRS_DET=                    1 / Selected IRS detector for exposure command
\char AIRSEXPM=                    1 / Current Mode of the IRS Exp Manager
\char GRPTIME =               2.0972 / [sec] Group (w/ spin) integration time
\char DEADTIME=               6.2916 / [sec] Reset + boost(s) time
\char RAMPTIME=                 6.29 / [sec] Ramp (total DCE) integration time
\char EXPTOT_T=                12.58 / [sec] Integr. time for all DCEs in exposure
\char AIRSERCT=                    0 / Number of IRS exposure errors
\char 
\char           / TARGET AND POINTING INFORMATION
\char 
\char OBJECT  = 'Orion Bar map'      / Target Name
\char OBJTYPE = 'TargetFixedCluster' / Target Type
\char RA_HMS  = '05h35m18.3s'        / [hh:mm:ss.s] RA_SLT or CRVAL1 in sexagesimal
\char DEC_DMS = '-05d24m01s'         / [dd:mm:ss] DEC_SLT or CRVAL2 in sexagesimal
\char RA_RQST =     83.8259166666667 / [deg] Commanded RA referenced to commanded FOV
\char DEC_RQST=    -5.39997222222221 / [deg] Commanded Dec referenced to commanded FOV
\char PA_RQST =     270.340085530891 / [deg] Requested pos. angle of axis 2 (E of N)
\char PM_RA   =                   0. / [arcsec/yr] Proper Motion in RA (J2000)
\char PM_DEC  =                   0. / [arcsec/yr] Proper Motion in Dec (J2000)
\char CRDER1  = 0.000299559372915011 / Program calkeywords trimmed-average result
\char CRDER2  = 0.000299695009577123 / Program calkeywords trimmed-average result
\char SIGRA   =  0.00656183750872776 / [arcsec] RMS dispersion of RA over DCE
\char SIGDEC  =   0.0103371748395244 / [arcsec] RMS dispersion of DEC over DCE
\char SIGPA   =   0.0450257069429462 / [arcsec] RMS dispersion of PA over DCE
\char PTGDIFF =    0.104907903597782 / [arcsec] offset btwn actual and rqsted pntng
\char PTGDIFFX=   0.0532615073256546 / [arcsec] requested - actual pntg along axis 1
\char PTGDIFFY=  -0.0903796971738464 / [arcsec] requested - actual pntg along axis 2
\char RA_REF  =     83.8259166666667 / [deg] Commanded RA (J2000) of ref. position
\char DEC_REF =    -5.41108333333333 / [deg] Commanded Dec (J2000) of ref. position
\char USEDBPHF=                    T / T if Boresight Pointing History File was used.
\char RMS_JIT =  0.00523544694710169 / Program calkeywords trimmed-average result
\char RMS_JITY=  0.00335791673266002 / Program calkeywords trimmed-average result
\char RMS_JITZ=  0.00401055963467309 / Program calkeywords trimmed-average result
\char RA_FOV  =      83.825944555067 / [deg] RA at FOVID averaged over DCE
\char DEC_FOV =     -5.3999633736134 / [deg] DEC at FOVID averaged over DCE
\char PA_FOV  =    -48.1883162551403 / [deg] PA at FOVID averaged over DCE
\char RA_SLT  =     83.8263265550555 / [deg] RA at slit center averaged over DCE
\char DEC_SLT =    -5.40030365217461 / [deg] DEC at slit center averaged over DCE
\char PA_SLT  =    -48.1883532551391 / [deg] PA at slit center averaged over DCE
\char CSDRADEC= 6.92538995791746E-06 / [deg] Costandard deviation in RA and Dec
\char CSD_JTYZ=  0.00284260661384362 / [arcsec] Costandard deviation of jitter in YZ
\char BPHFNAME= 'BPHF.0764467200.04.pntg' / Boresight Pointing History Filename
\char FOVVERSN= 'BodyFrames_FTU_13Aa.xls' / FOV/BodyFrames file version used
\char VHELCORR=                 -26. / [km/sec] Correction to heliocentric velocity
\char VLSRCORR=                 -44. / [km/sec] Correction to local standard of rest
\char SPTZR_X =     -149243414.74011 / [km] Heliocentric x position
\char SPTZR_Y =        4740619.17861 / [km] Heliocentric y position
\char SPTZR_Z =        -69422.135509 / [km] Heliocentric z position
\char SPTZR_VX=            -1.064309 / [km/sec] Heliocentric x velocity
\char SPTZR_VY=            -27.29802 / [km/sec] Heliocentric y velocity
\char SPTZR_VZ=           -12.325241 / [km/sec] Heliocentric z velocity
\char ET_OBS  =        133305736.083 / [sec] DCE start time (TDB seconds past J2000)
\char HMJD_OBS=        53087.3892855 / Corresponding Heliocen. Mod. Julian Date
\char 
\char 
\char           / PHOTOMETRY (IRS IMAGING)
\char 
\char BUNIT   = 'e-/sec  '           / Units of image data
\char 
\char           / SPECTROPHOTOMETRY IRS SH, LH (CHNLNUM 1, 3)
\char 
\char FLXCON11=           105.259789 / [electrons/sec/Jy] Flux conversion Order 11
\char FLXERR11=                124.5 / Flux conversion uncertainties Order 11
\char FLXCON12=           116.286804 / [electrons/sec/Jy] Flux conversion Order 12
\char FLXERR12=                124.5 / Flux conversion uncertainties Order 12
\char FLXCON13=           126.412613 / [electrons/sec/Jy] Flux conversion Order 13
\char FLXERR13=                124.5 / Flux conversion uncertainties Order 13
\char FLXCON14=            136.83342 / [electrons/sec/Jy] Flux conversion Order 14
\char FLXERR14=                124.5 / Flux conversion uncertainties Order 14
\char FLXCON15=           148.767761 / [electrons/sec/Jy] Flux conversion Order 15
\char FLXERR15=                124.5 / Flux conversion uncertainties Order 15
\char FLXCON16=           161.639481 / [electrons/sec/Jy] Flux conversion Order 16
\char FLXERR16=                124.5 / Flux conversion uncertainties Order 16
\char FLXCON17=           175.408447 / [electrons/sec/Jy] Flux conversion Order 17
\char FLXERR17=                124.5 / Flux conversion uncertainties Order 17
\char FLXCON18=           182.315125 / [electrons/sec/Jy] Flux conversion Order 18
\char FLXERR18=                124.5 / Flux conversion uncertainties Order 18
\char FLXCON19=           212.186325 / [electrons/sec/Jy] Flux conversion Order 19
\char FLXERR19=                124.5 / Flux conversion uncertainties Order 19
\char FLXCON20=           246.369156 / [electrons/sec/Jy] Flux conversion Order 20
\char FLXERR20=                124.5 / Flux conversion uncertainties Order 20
\char 
\char           / GENERAL MAPPING KEYWORDS
\char 
\char DBEXPOID=              1096915 / Current Exposure ID
\char 
\char           / IRS PEAKUP KEYWORDS
\char 
\char HP_CENQ =                    0 / Peakup centroid quality code
\char APKUPCEN=                    1 / Status of the peakup centroid
\char AXCNTRD1=                10788 / [centipixels] X value of the brightest centroid
\char AYCNTRD1=                 2798 / [centipixels] Y value of the brightest centroid
\char AXCNTRD2=                    0 / [centipixels] X value of the second brightest c
\char AYCNTRD2=                    0 / [centipixels] Y value of the second brightest c
\char AINTENS1=               361203 / [counts] Intensity value of the brightest centr
\char AINTENS2=                    0 / [counts] Intensity value of the second brightes
\char APKUPXCE=                10788 / [centipixels] X value of the centroid to be ret
\char APKUPYCE=                 2798 / [centipixels] Y value of the centroid to be ret
\char 
\char 
\char           / DATA FLOW KEYWORDS
\char 
\char DATE    = '2010-09-25T02:51:48' / file creation date (YYYY-MM-DDThh:mm:ss UT)
\char AORKEY  = '6075648 '           / AOR or EIR key. Astrnmy Obs Req/Instr Eng Req
\char EXPID   =                   11 / Exposure ID (0-9999)
\char DCENUM  =                    0 / DCE number (0-9999)
\char TLMGRPS =                    4 / Number of expected telemetry groups
\char FILE_VER=                    1 / Version of the raw file made by SIS
\char RAWNAME = 'IRSX.1.0006075648.0011.0000.01.mipl.fits' / Raw data file name
\char SIS_SVER= 'J5.2.3  '           / SIS SW VERsion
\char CPT_VER = '3.0.95  '           / Channel Param Table FOS version
\char CTD_VER = '3.0.94S '           / Cmded telemetry data version
\char EXPDFLAG=                    F / (T/F) expedited DCE
\char MISS_LCT=                    0 / Total Missed Line Cnt in this FITS
\char MANCPKT =                    F / T if this FITS is Missing Ancillary Data
\char MISSDATA=                    F / T if this FITS is Missing Image Data
\char PAONUM  =                  423 / PAO Number
\char CAMPAIGN= 'IRSX002900'         / Campaign
\char DCEID   =             12149090 / Data-Collection-Event ID
\char DCEINSID=              1821010 / DCE Instance ID
\char DPID    =            326952315 / Data Product Instance ID
\char PIPENUM =                  202 / Ensemble-information
\char SOS_VER =                   1. / Data-Product Version
\char PLVID   =                    9 / Pipeline Version ID
\char CALID   =                    3 / CalTrans Version ID
\char ORIGIN0 = 'JPL_FOS '           / site where RAW FITS files was written
\char CREATOR0= 'J5.2.3  '           / SW system that created RAW FITS
\char 
\char XTCHINSQ=                    4 / Number of rows with poor SH/LH optical crosstal
\char XTKUNCOR=                    0 / Number of rows with no SH/LH optical crosstalk
\char GAIN1   =                  4.6 / e/DN conversion (readout channel 1)
\char GAIN2   =                  4.6 / e/DN conversion (readout channel 2)
\char GAIN3   =                  4.6 / e/DN conversion (readout channel 3)
\char GAIN4   =                  4.6 / e/DN conversion (readout channel 4)
\char BASECH1 =             30017.07 / Trimmed mean channel 1 signal in reference unil
\char BASECH2 =             29350.46 / Trimmed mean channel 2 signal in reference unil
\char BASECH3 =             30050.42 / Trimmed mean channel 3 signal in reference unil
\char BASECH4 =             30330.32 / Trimmed mean channel 4 signal in reference unil
\char 
\char FBIDDARK=                  551
\char FBIDFLAT=                 1085
\char FBIDLNCR=                   23
\char FBIDLNMD=                  237
\char FBIDOMSK=                   48
\char FBIDPMSK=                  108
\char FBIDWSMP=                 1066
\char FBIDUMSK=                   67
\char FBIDWSOF=                 1067
\char FBIDWSOM=                 1068
\char FBIDWSWA=                 1065
\char FBIDFLXC=                 1202
\char FBIDFMSK=                   72
\char FBIDCALS=                 1212
\char FBIDLNSC=                  506
\char CKWPROC = 'calkeywords'        / PERFORM CALKEYWORDS OPERATIONS
\char CKWVERSN=                 3.40 / Version number of calkeywords program
\char ACTUALN =                    2 / Ensemble-information
\char EXPECTN =                    2 / Ensemble-information
\char ENSID   =               182818 / Ensemble-information
\char EPVERSN =                   11 / Ensemble-information
\char CALTYPE = 'coadd   '           / Ensemble-information
\char EPID    =              7229762 / SODB cal-table metadata-record index
\char CKWCENF1=                  0.9 / Central trim fraction for mean (=0 for median)
\char CKWCENF2=                  0.9 / Central trim fraction for standard deviation
\char CKWNLFIL= 'calkeywords.nl'
\char CKWILIST= 'inputlist_coadd'
\char CKWKLIST= 'calkeywords_inputlist_coadd2d.dat'
\char CKWEINFO= 'ensemble_info.txt'
\char CKWOFIL1= 'coadd2d.fits'
\char CKWLGFIL= 'stdout  '
\HISTORY PROCESS 2010/09/24 19:56:02
\HISTORY profile v3.6  (integrate (library) v1.31, nl_and_params v1.9)
\HISTORY INFILE = coadd2d.fits
\HISTORY WAVSAMP_FILE = ./cal/wavsamp.tbl
\HISTORY N_CUTS = 400,
\HISTORY BMASKFILE = coadd2d_amask.fits
\HISTORY BMASKFILE_FATAL = 29056,
\HISTORY NAMELIST_FILE = ./cdf/profile.nl
\int CHNLNUM = 1
\int FOVID   = 51
\char HISTORY PROCESS 2010/09/24 19:56:03
\char HISTORY extract v5.6  (integrate (library) v1.31, nl_and_params v1.9)
\char HISTORY INFILE = coadd2d.fits
\char HISTORY RIDGE_TABLE = ridge.tbl
\char HISTORY BMASKFILE = coadd2d_amask.fits
\char HISTORY UNCERFILE = coadd2d_unc.fits
\char HISTORY BMASKFATAL = 29056,
\char HISTORY NAMELIST_FILE = ./cdf/extract.nl
\char HISTORY FULL_SLIT_EXTRACT = 1,
\char HISTORY FLAG_NAN_DROP = 1
\float FCON_UNC = 124.500000
\char HISTORY PROCESS 2010/09/24 19:56:04
\char HISTORY irs_tune v3.4  (nl_and_params v1.9)
\char HISTORY INFILE = extract.tbl
\char HISTORY INFILE = ./cal/fluxcon.tbl
\char HISTORY UP_DOWN_MODE = tune_down
\char HISTORY APPLY = 3,
\char HISTORY NAMELIST_FILE = ./cdf/irs_tune.nl
|order        |wavelength         |flux_density        |error               |bit-flag            |
|int          |real               |real                |real                |int                 |
|             |                   |Jy                  |Jy                  |                    |
 20            9.88629             3.032333             0.044279             128                  
 20            9.89390             8.935517             0.099092             0                    
 20            9.90151             9.096478             0.099585             0                    
 20            9.90913             8.994762             0.090083             0                    
 20            9.91675             8.834363             0.092111             0                    
 20            9.92439             8.880307             0.100173             0                    
 20            9.93202             8.874166             0.092176             0                    
 20            9.93967             8.973682             0.083543             0                    
 20            9.94731             9.056041             0.083977             0                    
 20            9.95497             9.172872             0.076945             0                    
 20            9.96263             9.081310             0.085898             0                    
 20            9.97030             9.002915             0.066026             0                    
 20            9.97797             9.027297             0.065050             0                    
 20            9.98565             9.903853             0.061438             0                    
 20            9.99333             10.215455            0.057262             0                    
 20            10.00102            9.652738             0.056530             0                    
 20            10.00872            9.255769             0.057122             0                    
 20            10.01642            9.225432             0.055574             0                    
 20            10.02413            9.203514             0.053846             0                    
 20            10.03184            9.200013             0.057168             0                    
 20            10.03956            9.209902             0.060978             0                    
 20            10.04729            9.215130             0.058799             0                    
 20            10.05502            9.183525             0.059024             0                    
 20            10.06276            9.319528             0.065985             0                    
 20            10.07050            9.171438             0.066867             0                    
 20            10.07825            9.183370             0.064742             0                    
 20            10.08600            9.256769             0.069762             0                    
 20            10.09377            9.261078             0.074705             0                    
 20            10.10153            9.324404             0.069205             0                    
 20            10.10931            9.353784             0.064875             0                    
 20            10.11709            9.481242             0.066487             0                    
 20            10.12487            9.534595             0.064216             0                    
 20            10.13266            9.608988             0.058962             0                    
 20            10.14046            9.597986             0.058098             0                    
 20            10.14826            9.577822             0.059489             0                    
 20            10.15607            9.619704             0.056352             0                    
 20            10.16389            9.560821             0.052603             0                    
 20            10.17171            9.560308             0.053600             0                    
 20            10.17954            9.585844             0.053841             0                    
 20            10.18737            9.661859             NaN                  12288                
 20            10.19521            9.719513             NaN                  12288                
 20            10.20306            9.667257             0.051460             0                    
 20            10.21091            9.700027             0.051685             0                    
 20            10.21876            9.768755             0.049675             0                    
 20            10.22663            9.715624             0.049520             0                    
 20            10.23450            9.671569             0.051703             0                    
 20            10.24237            9.702477             0.051823             0                    
 20            10.25026            9.786151             0.049943             0                    
 20            10.25814            9.832231             0.051146             0                    
 20            10.26604            9.836823             0.054323             0                    
 20            10.27394            9.914843             0.054452             0                    
 20            10.28184            10.010554            0.053546             0                    
 20            10.28976            10.067407            0.056474             0                    
 20            10.29767            10.100130            0.060881             0                    
 20            10.30560            10.171361            0.064954             0                    
 20            10.31353            10.042990            0.062019             0                    
 20            10.32146            9.997169             0.061217             0                    
 20            10.32941            10.063718            0.064107             0                    
 20            10.33736            10.136505            0.062265             0                    
 20            10.34531            9.999563             0.061922             0                    
 20            10.35327            9.971156             0.067368             0                    
 20            10.36124            10.021081            0.069183             0                    
 20            10.36921            9.941365             0.065037             0                    
 20            10.37719            9.192082             0.061785             0                    
 20            10.38518            9.108238             0.066827             0                    
 20            10.39317            9.059387             0.065223             0                    
 20            10.40117            9.369029             0.064176             0                    
 20            10.40917            10.255329            0.077773             0                    
 20            10.41718            10.078606            0.080966             0                    
 20            10.42520            10.165058            0.077315             0                    
 20            10.43322            11.000528            0.080782             0                    
 20            10.44125            12.165894            0.094416             128                  
 20            10.44928            11.817497            0.097589             128                  
 20            10.45732            10.518505            0.087828             0                    
 20            10.46537            10.333503            0.089470             0                    
 20            10.47342            10.395751            0.097575             0                    
 20            10.48148            10.895274            0.099834             0                    
 20            10.48955            13.066184            0.103727             0                    
 20            10.49762            31.492126            0.148651             0                    
 20            10.50570            93.618195            0.290210             0                    
 20            10.51378            128.757019           0.370438             0                    
 20            10.52188            54.321335            0.237367             0                    
 20            10.52997            12.875926            0.124609             0                    
 20            10.53808            10.318380            0.120224             0                    
 20            10.54618            10.371766            0.118986             0                    
 20            10.55430            10.070233            0.121578             0                    
 20            10.56242            10.196043            0.137802             0                    
 20            10.57055            10.848072            0.158368             0                    
 20            10.57868            11.335173            0.156657             0                    
 20            10.58683            11.028967            NaN                  12416                
 20            10.59497            9.942666             NaN                  12416                
 20            10.60313            8.891268             0.189916             128                  
 20            10.61128            8.523319             0.135255             128                  
 20            10.61945            8.673294             0.151906             128                  
 20            10.62762            8.096282             0.167004             128                  
 20            10.63580            8.021805             0.178581             128                  
 20            10.64398            7.724434             0.196206             128                  
 20            10.65218            6.675912             0.242566             128                  
 20            10.66037            5.651219             0.283406             128                  
 20            10.66858            4.861493             0.305690             128                  
 20            10.67679            5.612453             0.421320             128                  
 20            10.68500            4.422162             0.886827             128                  
 20            10.69322            1.542825             1.231784             128                  
 20            10.70145            0.215313             0.590279             128                  
 19            10.40117            4.053398             0.040431             128                  
 19            10.40917            9.770811             0.070827             0                    
 19            10.41718            9.744449             0.072605             0                    
 19            10.42520            10.179240            0.079863             0                    
 19            10.43322            11.359792            0.084285             0                    
 19            10.44125            11.673402            0.083961             0                    
 19            10.44928            10.517036            0.086099             0                    
 19            10.45732            10.067221            0.088742             0                    
 19            10.46537            10.168990            0.081006             0                    
 19            10.47342            10.197695            0.072970             0                    
 19            10.48148            10.809499            0.074819             0                    
 19            10.48955            13.260315            0.078490             0                    
 19            10.49762            28.307140            0.102062             0                    
 19            10.50570            98.907494            NaN                  12288                
 19            10.51378            114.240555           NaN                  12288                
 19            10.52188            53.191719            0.115473             0                    
 19            10.52997            13.479894            0.059099             0                    
 19            10.53808            10.631272            0.052363             0                    
 19            10.54618            10.574699            0.054216             0                    
 19            10.55430            10.565625            0.054933             0                    
 19            10.56242            10.653770            NaN                  12288                
 19            10.57055            10.931639            NaN                  12288                
 19            10.57868            11.798512            0.061053             0                    
 19            10.58683            12.380454            0.065330             0                    
 19            10.59497            11.187254            0.060426             0                    
 19            10.60313            10.578638            0.060702             0                    
 19            10.61128            10.679221            0.067019             0                    
 19            10.61945            10.838082            0.069223             0                    
 19            10.62762            10.793354            0.067751             0                    
 19            10.63580            10.807465            0.071126             0                    
 19            10.64398            10.808640            0.074171             0                    
 19            10.65218            10.981080            0.069718             0                    
 19            10.66037            10.955292            0.064524             0                    
 19            10.66858            11.087234            0.065956             0                    
 19            10.67679            11.018318            0.065120             0                    
 19            10.68500            11.071173            0.060197             0                    
 19            10.69322            11.166597            0.058229             0                    
 19            10.70145            11.170130            0.059676             0                    
 19            10.70969            11.245460            0.059081             0                    
 19            10.71793            11.437859            0.055965             0                    
 19            10.72618            11.441418            0.055148             0                    
 19            10.73443            11.425643            0.056769             0                    
 19            10.74269            11.404927            0.055341             0                    
 19            10.75096            11.401731            0.053017             0                    
 19            10.75923            11.424322            0.052969             0                    
 19            10.76751            11.474657            0.055166             0                    
 19            10.77580            11.541035            0.055406             0                    
 19            10.78409            11.621457            0.054262             0                    
 19            10.79239            11.646975            0.055034             0                    
 19            10.80069            11.701066            0.057717             0                    
 19            10.80900            11.816294            0.058598             0                    
 19            10.81732            11.852304            0.057311             0                    
 19            10.82565            11.810474            0.058344             0                    
 19            10.83398            11.797030            0.061435             0                    
 19            10.84231            11.819235            0.061657             0                    
 19            10.85066            11.883854            0.060448             0                    
 19            10.85901            11.960452            0.062705             0                    
 19            10.86736            11.953058            0.066781             0                    
 19            10.87573            12.061449            0.066929             0                    
 19            10.88410            12.109335            0.065294             0                    
 19            10.89247            12.048483            0.067536             0                    
 19            10.90085            12.141961            0.071606             0                    
 19            10.90924            12.158552            0.071418             0                    
 19            10.91764            12.097030            0.069101             0                    
 19            10.92604            12.269653            0.073815             0                    
 19            10.93445            12.419663            0.078827             0                    
 19            10.94286            12.535136            0.077535             0                    
 19            10.95128            12.820682            0.079040             0                    
 19            10.95971            12.838292            0.083105             0                    
 19            10.96814            12.900134            0.087333             0                    
 19            10.97658            13.258121            0.088365             0                    
 19            10.98503            13.601895            0.088209             0                    
 19            10.99348            13.756355            0.094316             0                    
 19            11.00194            13.791352            0.099837             0                    
 19            11.01041            13.928793            0.099060             0                    
 19            11.01888            13.960041            0.102297             0                    
 19            11.02736            13.698144            0.103695             0                    
 19            11.03585            13.790112            0.115158             0                    
 19            11.04434            13.741443            0.110676             0                    
 19            11.05284            13.452509            0.103568             128                  
 19            11.06134            13.646978            0.116057             128                  
 19            11.06986            13.454063            0.124493             128                  
 19            11.07837            13.077271            0.109230             128                  
 19            11.08690            12.857834            0.108372             128                  
 19            11.09543            12.913913            0.119011             128                  
 19            11.10397            12.810200            0.124964             128                  
 19            11.11251            12.832629            0.121245             128                  
 19            11.12107            12.940855            0.126106             128                  
 19            11.12962            12.870229            0.134988             128                  
 19            11.13819            12.765210            0.139776             128                  
 19            11.14676            13.410121            0.150500             128                  
 19            11.15534            14.199968            0.165420             128                  
 19            11.16392            14.731524            0.183523             128                  
 19            11.17251            15.644363            0.201775             128                  
 19            11.18111            16.522694            0.206866             128                  
 19            11.18971            17.030689            0.214992             128                  
 19            11.19832            16.804104            0.256857             128                  
 19            11.20694            16.735735            0.287101             128                  
 19            11.21557            16.555983            0.284421             128                  
 19            11.22420            15.953914            0.323659             128                  
 19            11.23283            16.180471            0.361434             128                  
 19            11.24148            13.153072            0.543354             128                  
 19            11.25013            10.893221            0.319938             128                  
 19            11.25879            10.579768            0.305835             128                  
 19            11.26745            9.924137             0.490424             128                  
 19            11.27612            8.078307             0.650066             128                  
 19            11.28480            4.415215             0.450598             128                  
 19            11.29348            0.188149             0.024288             12416                
 18            10.96814            0.139540             0.002540             128                  
 18            10.97658            12.196549            0.113000             128                  
 18            10.98503            12.852652            0.104834             0                    
 18            10.99348            13.191316            0.093703             0                    
 18            11.00194            13.365383            0.087679             0                    
 18            11.01041            13.388506            0.085678             0                    
 18            11.01888            13.349669            0.078422             0                    
 18            11.02736            13.235524            0.071164             0                    
 18            11.03585            13.133017            0.068679             0                    
 18            11.04434            13.055829            0.069403             0                    
 18            11.05284            12.984719            0.068834             0                    
 18            11.06134            12.989758            0.066566             0                    
 18            11.06986            13.032482            0.066605             0                    
 18            11.07837            13.159549            0.071317             0                    
 18            11.08690            13.301070            0.075222             0                    
 18            11.09543            13.162603            0.073103             0                    
 18            11.10397            13.191991            0.074983             0                    
 18            11.11251            13.377270            0.081898             0                    
 18            11.12107            13.454597            0.086566             0                    
 18            11.12962            13.550438            0.084349             0                    
 18            11.13819            13.873865            0.083444             0                    
 18            11.14676            14.097343            0.083175             0                    
 18            11.15534            14.791571            0.082530             0                    
 18            11.16392            15.565122            0.077151             0                    
 18            11.17251            16.644739            0.074979             0                    
 18            11.18111            17.763086            0.077558             0                    
 18            11.18971            18.835878            0.077583             0                    
 18            11.19832            19.708786            0.074161             0                    
 18            11.20694            19.707941            0.070989             0                    
 18            11.21557            19.530640            0.071896             0                    
 18            11.22420            19.465830            0.071906             0                    
 18            11.23283            19.331560            0.068790             0                    
 18            11.24148            19.120827            0.066940             0                    
 18            11.25013            18.837006            0.067860             0                    
 18            11.25879            18.551397            0.068730             0                    
 18            11.26745            18.348236            0.067763             0                    
 18            11.27612            18.140497            0.066514             0                    
 18            11.28480            17.846842            0.068356             0                    
 18            11.29348            17.720560            0.070624             0                    
 18            11.30217            18.191628            0.072207             0                    
 18            11.31087            18.447870            0.072952             0                    
 18            11.31957            17.392864            0.073724             0                    
 18            11.32828            16.497063            0.076010             0                    
 18            11.33700            16.230564            0.076038             0                    
 18            11.34573            15.947657            0.074970             0                    
 18            11.35446            15.698298            0.076610             0                    
 18            11.36319            15.551757            0.081525             0                    
 18            11.37194            15.322679            0.080756             0                    
 18            11.38069            15.273316            0.080109             0                    
 18            11.38945            15.021199            0.082171             0                    
 18            11.39821            14.739581            0.086160             0                    
 18            11.40698            14.791123            0.086591             0                    
 18            11.41576            14.636755            0.083878             0                    
 18            11.42455            14.492619            0.085735             0                    
 18            11.43334            14.436294            0.089989             0                    
 18            11.44214            14.405607            0.088858             0                    
 18            11.45094            14.199346            0.084182             0                    
 18            11.45975            14.076483            0.086028             0                    
 18            11.46857            13.930906            0.087947             0                    
 18            11.47740            13.926839            0.088909             0                    
 18            11.48623            13.955055            0.085321             0                    
 18            11.49507            13.986321            0.086980             0                    
 18            11.50391            13.785735            0.089476             0                    
 18            11.51277            13.789821            0.090797             0                    
 18            11.52162            13.753664            0.088219             0                    
 18            11.53049            13.761775            0.089788             0                    
 18            11.53936            13.861354            0.094405             0                    
 18            11.54824            14.001357            0.097051             0                    
 18            11.55713            13.907190            0.093183             0                    
 18            11.56602            13.768221            0.093201             0                    
 18            11.57492            13.682790            0.099340             0                    
 18            11.58383            13.571931            0.100742             0                    
 18            11.59275            13.584885            0.099729             0                    
 18            11.60167            13.557058            0.099514             0                    
 18            11.61059            13.229210            0.103758             0                    
 18            11.61953            13.251222            0.105787             0                    
 18            11.62847            13.343955            0.107281             0                    
 18            11.63742            13.376036            0.109250             0                    
 18            11.64637            13.396184            0.116093             0                    
 18            11.65534            13.094629            0.119269             0                    
 18            11.66431            13.297637            0.124122             0                    
 18            11.67328            13.239472            0.119001             0                    
 18            11.68226            13.433919            NaN                  12288                
 18            11.69125            13.431901            NaN                  12288                
 18            11.70025            13.291018            0.138573             0                    
 18            11.70925            13.560361            0.146917             0                    
 18            11.71827            13.234172            0.153524             128                  
 18            11.72728            13.147770            0.163754             128                  
 18            11.73631            12.956338            0.169474             128                  
 18            11.74534            12.325377            0.138348             128                  
 18            11.75438            12.261116            0.134545             128                  
 18            11.76342            12.287344            NaN                  12416                
 18            11.77247            12.180775            NaN                  12416                
 18            11.78153            11.727374            0.136354             128                  
 18            11.79060            11.581342            0.135868             128                  
 18            11.79967            11.561187            0.143247             128                  
 18            11.80875            11.513397            0.150672             128                  
 18            11.81784            11.542198            0.151865             128                  
 18            11.82693            11.375875            0.146791             128                  
 18            11.83604            11.443205            0.155596             128                  
 18            11.84514            11.174988            0.168782             128                  
 18            11.85426            11.668796            0.183132             128                  
 18            11.86338            11.465793            0.185290             128                  
 18            11.87251            10.994676            0.193527             128                  
 18            11.88165            10.569404            NaN                  12416                
 18            11.89079            9.850576             NaN                  12416                
 18            11.89994            9.083433             0.631359             128                  
 18            11.90910            8.135631             0.437960             128                  
 18            11.91826            7.349581             0.319938             128                  
 18            11.92743            6.834661             1.122206             128                  
 18            11.93661            6.092782             0.613346             128                  
 18            11.94580            3.929519             0.407162             128                  
 18            11.95499            1.174281             NaN                  12416                
 18            11.96419            0.105591             NaN                  12416                
 17            11.61059            8.634913             0.076189             128                  
 17            11.61953            12.335190            0.079549             0                    
 17            11.62847            12.364006            0.078374             0                    
 17            11.63742            12.277319            0.075333             0                    
 17            11.64637            12.228869            0.071638             0                    
 17            11.65534            12.399922            0.071211             0                    
 17            11.66431            12.395417            0.073852             0                    
 17            11.67328            12.315619            0.076608             0                    
 17            11.68226            12.371355            0.078043             0                    
 17            11.69125            12.291224            0.077083             0                    
 17            11.70025            12.273219            0.082185             0                    
 17            11.70925            12.506144            0.088525             0                    
 17            11.71827            12.580763            0.089287             0                    
 17            11.72728            12.873855            0.085873             0                    
 17            11.73631            12.706528            0.082662             0                    
 17            11.74534            12.618835            NaN                  12288                
 17            11.75438            12.773608            NaN                  12288                
 17            11.76342            13.021579            0.069965             0                    
 17            11.77247            12.857509            0.065751             0                    
 17            11.78153            12.800732            0.065116             0                    
 17            11.79060            12.880063            0.062944             0                    
 17            11.79967            12.917481            NaN                  12288                
 17            11.80875            12.869686            NaN                  12288                
 17            11.81784            12.893847            0.057522             0                    
 17            11.82693            12.975432            0.058391             0                    
 17            11.83604            13.090036            0.058017             0                    
 17            11.84514            13.221434            0.057387             0                    
 17            11.85426            13.197413            0.057843             0                    
 17            11.86338            13.171220            0.060423             0                    
 17            11.87251            13.218523            0.061853             0                    
 17            11.88165            13.301679            0.061909             0                    
 17            11.89079            13.290610            0.062189             0                    
 17            11.89994            13.284138            0.065865             0                    
 17            11.90910            13.399485            NaN                  12288                
 17            11.91826            13.393904            NaN                  12288                
 17            11.92743            13.403559            0.069644             0                    
 17            11.93661            13.457922            0.072756             0                    
 17            11.94580            13.412899            0.075999             0                    
 17            11.95499            13.533218            0.075335             0                    
 17            11.96419            13.590749            0.073901             0                    
 17            11.97340            13.561616            0.073695             0                    
 17            11.98261            13.555646            0.075092             0                    
 17            11.99183            13.619739            0.072834             0                    
 17            12.00106            13.769531            0.070104             0                    
 17            12.01029            13.699072            0.068322             0                    
 17            12.01954            13.656569            0.069329             0                    
 17            12.02879            13.555736            0.067633             0                    
 17            12.03804            13.671692            0.065931             0                    
 17            12.04731            13.608701            0.063912             0                    
 17            12.05658            13.617021            0.066036             0                    
 17            12.06585            13.835702            0.066821             0                    
 17            12.07514            13.828089            0.064775             0                    
 17            12.08443            13.636411            0.062078             0                    
 17            12.09373            13.630394            0.063675             0                    
 17            12.10304            13.752746            0.065787             0                    
 17            12.11235            13.766562            0.065261             0                    
 17            12.12167            13.598464            0.062885             0                    
 17            12.13100            13.530909            0.063596             0                    
 17            12.14034            13.521308            0.065626             0                    
 17            12.14968            13.673891            0.066660             0                    
 17            12.15903            13.687228            NaN                  12288                
 17            12.16838            13.592800            NaN                  12288                
 17            12.17775            13.591475            0.067219             0                    
 17            12.18712            13.528763            0.068835             0                    
 17            12.19650            13.446573            0.067685             0                    
 17            12.20588            13.425256            0.067630             0                    
 17            12.21528            13.580814            0.070430             0                    
 17            12.22468            13.699945            0.073325             0                    
 17            12.23408            13.808094            0.085221             0                    
 17            12.24350            13.800718            0.076693             0                    
 17            12.25292            13.795570            0.075104             0                    
 17            12.26235            13.799057            0.078633             0                    
 17            12.27178            14.100810            0.081330             0                    
 17            12.28123            14.371456            0.083311             0                    
 17            12.29068            14.248479            0.083501             0                    
 17            12.30014            13.984619            NaN                  12288                
 17            12.30960            13.903886            NaN                  12288                
 17            12.31907            13.962742            NaN                  12288                
 17            12.32855            13.871706            NaN                  12288                
 17            12.33804            13.972969            0.096097             0                    
 17            12.34754            14.194332            0.100350             0                    
 17            12.35704            15.004154            0.105603             0                    
 17            12.36655            18.444349            0.116603             0                    
 17            12.37606            19.865164            0.127766             0                    
 17            12.38559            17.010643            0.128165             0                    
 17            12.39512            14.967336            0.126927             0                    
 17            12.40466            14.289023            0.126762             0                    
 17            12.41420            14.440219            0.139438             0                    
 17            12.42375            14.113891            0.139282             0                    
 17            12.43331            14.141870            0.150436             0                    
 17            12.44288            14.220665            0.149955             0                    
 17            12.45246            13.865912            0.140186             0                    
 17            12.46204            13.723501            0.148816             0                    
 17            12.47163            14.166588            0.174510             128                  
 17            12.48123            14.111607            0.186385             128                  
 17            12.49083            14.030882            0.187062             128                  
 17            12.50044            12.977410            0.153140             128                  
 17            12.51006            12.886335            0.160701             128                  
 17            12.51969            12.801345            0.173891             128                  
 17            12.52932            12.847720            0.177334             128                  
 17            12.53897            13.104828            0.180846             12416                
 17            12.54862            13.221434            0.184313             12416                
 17            12.55827            12.587378            0.185479             128                  
 17            12.56794            12.755642            0.188774             128                  
 17            12.57761            12.973550            0.193281             12416                
 17            12.58729            12.867006            0.183979             12416                
 17            12.59697            12.698029            0.193514             128                  
 17            12.60667            11.953843            NaN                  12416                
 17            12.61637            11.495550            NaN                  12416                
 17            12.62608            11.149317            0.208260             128                  
 17            12.63579            11.243672            0.219328             128                  
 17            12.64552            10.546945            0.240701             128                  
 17            12.65525            9.827607             0.297996             128                  
 17            12.66498            9.007667             0.307623             128                  
 17            12.67473            8.548760             0.410194             128                  
 17            12.68448            8.428905             1.141370             128                  
 17            12.69425            7.083946             0.799362             128                  
 17            12.70401            1.492503             0.198903             128                  
 16            12.31907            0.902831             0.009887             128                  
 16            12.32855            12.415483            0.104184             128                  
 16            12.33804            12.716550            0.101789             0                    
 16            12.34754            12.988504            0.096164             0                    
 16            12.35704            13.589854            0.094343             0                    
 16            12.36655            16.920166            0.100094             0                    
 16            12.37606            17.417921            0.092391             0                    
 16            12.38559            15.072823            0.076930             0                    
 16            12.39512            13.664352            0.070875             0                    
 16            12.40466            13.214014            0.068772             0                    
 16            12.41420            13.075604            0.067164             0                    
 16            12.42375            13.144641            0.064952             0                    
 16            12.43331            13.283933            0.063800             0                    
 16            12.44288            13.412721            0.065587             0                    
 16            12.45246            13.432603            0.068254             0                    
 16            12.46204            13.482522            0.070314             0                    
 16            12.47163            13.594668            0.070580             0                    
 16            12.48123            13.637152            0.072010             0                    
 16            12.49083            13.757839            0.076492             0                    
 16            12.50044            13.802562            0.081345             0                    
 16            12.51006            14.079932            0.082766             0                    
 16            12.51969            14.075928            0.080833             0                    
 16            12.52932            14.276504            0.081009             0                    
 16            12.53897            14.237796            0.081777             0                    
 16            12.54862            14.332711            NaN                  12288                
 16            12.55827            14.517553            NaN                  12288                
 16            12.56794            14.730466            0.069479             0                    
 16            12.57761            14.785776            0.068323             0                    
 16            12.58729            14.983863            0.067037             0                    
 16            12.59697            15.068363            0.065225             0                    
 16            12.60667            15.138801            0.061190             0                    
 16            12.61637            15.163634            NaN                  12288                
 16            12.62608            15.092165            NaN                  12288                
 16            12.63579            15.245608            0.060078             0                    
 16            12.64552            15.406511            0.058833             0                    
 16            12.65525            15.330263            0.057185             0                    
 16            12.66498            15.333282            0.057608             0                    
 16            12.67473            15.391053            0.058716             0                    
 16            12.68448            15.579824            0.059348             0                    
 16            12.69425            16.256325            0.059937             0                    
 16            12.70401            17.479561            0.062550             0                    
 16            12.71379            17.897718            0.065705             0                    
 16            12.72357            16.898849            NaN                  12288                
 16            12.73336            16.439814            NaN                  12288                
 16            12.74316            16.425983            0.065002             0                    
 16            12.75297            16.378128            0.065110             0                    
 16            12.76278            16.667990            0.068870             0                    
 16            12.77260            17.214621            0.071377             0                    
 16            12.78243            18.662138            NaN                  12288                
 16            12.79227            26.365431            NaN                  12288                
 16            12.80211            71.626465            0.137368             0                    
 16            12.81197            207.270111           0.396429             0                    
 16            12.82182            176.428833           0.354286             0                    
 16            12.83169            33.421715            0.109764             0                    
 16            12.84157            16.508522            0.078042             0                    
 16            12.85145            15.816465            0.079024             0                    
 16            12.86134            15.705959            0.081302             0                    
 16            12.87123            15.460369            0.079798             0                    
 16            12.88114            15.209982            0.078954             0                    
 16            12.89105            14.998623            0.079671             0                    
 16            12.90097            15.089158            0.082444             0                    
 16            12.91090            15.999787            0.086293             0                    
 16            12.92083            17.112778            0.087673             0                    
 16            12.93078            15.793120            0.084377             0                    
 16            12.94073            14.827275            0.084040             0                    
 16            12.95069            14.832307            0.087361             0                    
 16            12.96065            14.758033            0.086086             0                    
 16            12.97063            15.018262            0.086739             0                    
 16            12.98061            15.159032            0.088537             0                    
 16            12.99060            14.942605            0.091730             0                    
 16            13.00059            14.695066            0.090550             0                    
 16            13.01060            14.867569            0.091635             128                  
 16            13.02061            15.040824            0.091451             128                  
 16            13.03063            15.154986            0.095645             0                    
 16            13.04066            15.152314            0.098693             128                  
 16            13.05069            15.156153            0.099809             128                  
 16            13.06073            15.199986            0.098709             128                  
 16            13.07078            15.139763            0.099058             128                  
 16            13.08084            15.222207            0.104907             128                  
 16            13.09091            15.058545            0.106416             128                  
 16            13.10098            15.300637            0.107130             128                  
 16            13.11106            15.410721            0.105617             128                  
 16            13.12115            15.242807            0.107518             128                  
 16            13.13125            15.242393            0.109922             128                  
 16            13.14136            14.959431            0.107245             128                  
 16            13.15147            15.441123            0.111510             128                  
 16            13.16159            15.443440            NaN                  12416                
 16            13.17172            15.167320            NaN                  12416                
 16            13.18185            15.284452            0.114121             128                  
 16            13.19200            15.419353            0.116374             128                  
 16            13.20215            15.499558            0.114432             128                  
 16            13.21231            15.056834            0.109971             128                  
 16            13.22247            15.149469            0.113105             128                  
 16            13.23265            15.315208            0.121417             128                  
 16            13.24283            15.473503            0.124708             128                  
 16            13.25302            15.154043            0.118072             12416                
 16            13.26322            15.187843            NaN                  12416                
 16            13.27343            15.381747            NaN                  12416                
 16            13.28364            15.400322            0.132810             128                  
 16            13.29386            15.280275            0.133430             128                  
 16            13.30409            15.398711            0.134284             128                  
 16            13.31433            15.416108            0.139241             128                  
 16            13.32458            15.632463            0.157042             128                  
 16            13.33483            15.452948            0.163819             128                  
 16            13.34509            14.992867            0.160628             128                  
 16            13.35536            14.957054            0.165911             128                  
 16            13.36564            15.137805            0.185358             128                  
 16            13.37593            14.733379            0.203417             128                  
 16            13.38622            14.759799            0.227832             128                  
 16            13.39652            15.647218            0.255079             128                  
 16            13.40683            14.516968            0.252235             128                  
 16            13.41715            13.593768            0.261419             128                  
 16            13.42747            13.142647            0.308092             128                  
 16            13.43780            11.741243            0.275756             128                  
 16            13.44814            10.328728            0.235566             128                  
 16            13.45849            10.313535            0.238892             128                  
 16            13.46885            10.450163            0.248212             128                  
 16            13.47921            10.779210            0.295560             128                  
 16            13.48959            11.360168            0.323285             128                  
 16            13.49997            11.692386            0.347630             128                  
 16            13.51036            10.299146            0.407751             128                  
 16            13.52075            8.580563             0.380988             128                  
 16            13.53116            4.325229             0.332773             128                  
 15            13.13125            8.168385             0.062072             128                  
 15            13.14136            14.036242            0.075885             0                    
 15            13.15147            14.084298            0.076684             0                    
 15            13.16159            14.220018            0.076923             0                    
 15            13.17172            14.428872            0.076748             0                    
 15            13.18185            14.668173            0.078771             0                    
 15            13.19200            14.731135            0.083439             0                    
 15            13.20215            14.739806            0.088426             0                    
 15            13.21231            14.680744            0.090846             0                    
 15            13.22247            14.673118            0.090357             0                    
 15            13.23265            14.837842            0.091287             0                    
 15            13.24283            14.714012            0.091929             0                    
 15            13.25302            14.705064            0.090600             0                    
 15            13.26322            14.903052            0.084088             0                    
 15            13.27343            15.072955            0.078434             0                    
 15            13.28364            15.279403            0.074731             0                    
 15            13.29386            15.319678            0.073646             0                    
 15            13.30409            15.365996            0.070856             0                    
 15            13.31433            15.497033            0.067236             0                    
 15            13.32458            15.608803            0.063872             0                    
 15            13.33483            15.569541            0.062647             0                    
 15            13.34509            15.598452            0.063390             0                    
 15            13.35536            15.820797            0.064244             0                    
 15            13.36564            15.963481            0.064029             0                    
 15            13.37593            15.905202            0.062372             0                    
 15            13.38622            16.072912            0.063903             0                    
 15            13.39652            16.260120            0.067641             0                    
 15            13.40683            16.163111            NaN                  12288                
 15            13.41715            16.166372            NaN                  12288                
 15            13.42747            16.424971            0.071040             0                    
 15            13.43780            16.571552            0.074078             0                    
 15            13.44814            16.507589            0.077052             0                    
 15            13.45849            16.679718            0.081325             0                    
 15            13.46885            16.816065            0.080438             0                    
 15            13.47921            16.864067            0.079973             0                    
 15            13.48959            17.132341            0.080891             0                    
 15            13.49997            17.043795            0.083314             0                    
 15            13.51036            17.091105            0.082308             0                    
 15            13.52075            17.361698            0.080454             0                    
 15            13.53116            17.630819            0.078146             0                    
 15            13.54157            17.658289            0.077127             0                    
 15            13.55199            17.705257            0.077977             0                    
 15            13.56242            17.846029            0.075657             0                    
 15            13.57286            17.881889            0.072777             0                    
 15            13.58330            17.904905            0.069583             0                    
 15            13.59375            18.042372            0.070445             0                    
 15            13.60421            18.164068            0.071191             0                    
 15            13.61468            18.123648            0.069429             0                    
 15            13.62516            18.144766            0.067013             0                    
 15            13.63564            18.316282            0.067410             0                    
 15            13.64614            18.357080            0.067301             0                    
 15            13.65664            18.581451            0.068963             0                    
 15            13.66715            18.608114            NaN                  12288                
 15            13.67766            18.636208            NaN                  12288                
 15            13.68819            18.809608            0.066959             0                    
 15            13.69872            18.891567            0.067894             0                    
 15            13.70926            19.037004            0.069964             0                    
 15            13.71981            19.113047            0.069900             0                    
 15            13.73037            19.191961            0.069475             0                    
 15            13.74094            19.253155            0.069513             0                    
 15            13.75151            19.230247            0.070262             0                    
 15            13.76209            19.280035            0.072843             0                    
 15            13.77268            19.691236            0.075808             0                    
 15            13.78328            19.523365            0.071622             0                    
 15            13.79389            19.393305            0.071506             0                    
 15            13.80450            19.566486            0.073917             0                    
 15            13.81513            19.837706            0.076176             0                    
 15            13.82576            20.010212            0.077173             0                    
 15            13.83640            20.071285            0.076739             0                    
 15            13.84705            20.137625            0.076680             0                    
 15            13.85770            20.089336            NaN                  12288                
 15            13.86836            20.316883            NaN                  12288                
 15            13.87904            20.500818            0.083352             0                    
 15            13.88972            20.672071            0.084030             0                    
 15            13.90041            20.734692            0.084829             0                    
 15            13.91110            20.831232            0.088196             0                    
 15            13.92181            20.971981            0.090505             0                    
 15            13.93252            21.295385            0.093115             0                    
 15            13.94324            21.402784            0.091408             0                    
 15            13.95397            21.422184            0.094490             0                    
 15            13.96471            21.525373            0.097777             0                    
 15            13.97546            21.590351            0.101977             0                    
 15            13.98621            21.515429            0.101166             0                    
 15            13.99697            21.675877            0.102046             0                    
 15            14.00774            21.770187            0.107326             0                    
 15            14.01852            21.953917            0.113886             0                    
 15            14.02931            22.330757            0.120733             0                    
 15            14.04011            22.223211            0.118461             0                    
 15            14.05091            22.535660            0.124889             0                    
 15            14.06172            22.700911            0.128946             0                    
 15            14.07254            22.341578            NaN                  12288                
 15            14.08337            22.328884            NaN                  12288                
 15            14.09421            22.659056            0.147313             0                    
 15            14.10506            23.003860            0.155871             0                    
 15            14.11591            22.783794            0.156524             0                    
 15            14.12677            22.902336            0.168174             0                    
 15            14.13764            22.772514            0.177154             0                    
 15            14.14852            23.145624            0.179789             0                    
 15            14.15941            22.937214            0.178403             0                    
 15            14.17031            23.556288            0.180628             0                    
 15            14.18121            24.064789            0.197837             0                    
 15            14.19213            22.763525            0.189059             0                    
 15            14.20305            23.078203            0.190078             0                    
 15            14.21398            24.256536            0.199233             0                    
 15            14.22491            24.546928            0.195307             0                    
 15            14.23586            24.618050            0.201740             0                    
 15            14.24682            24.104568            0.209344             0                    
 15            14.25778            23.206949            0.201604             0                    
 15            14.26875            22.997665            0.193075             0                    
 15            14.27973            23.380396            0.196425             0                    
 15            14.29072            23.207228            0.209211             0                    
 15            14.30172            23.122419            0.221085             0                    
 15            14.31272            22.108013            0.222157             0                    
 15            14.32374            21.361799            0.212173             0                    
 15            14.33476            21.802940            0.230219             0                    
 15            14.34579            22.048286            0.249216             0                    
 15            14.35683            21.500780            0.274104             128                  
 15            14.36788            21.820757            0.350705             128                  
 15            14.37893            21.388226            0.324194             128                  
 15            14.39000            20.046894            0.327132             128                  
 15            14.40107            20.093575            0.442243             128                  
 15            14.41215            16.564953            0.319362             128                  
 15            14.42324            0.583501             0.016762             128                  
 14            14.05091            11.611812            0.073540             128                  
 14            14.06172            20.012409            0.085856             0                    
 14            14.07254            20.174812            0.083681             0                    
 14            14.08337            20.255846            0.085022             0                    
 14            14.09421            20.397301            0.088850             0                    
 14            14.10506            20.680193            0.095107             0                    
 14            14.11591            20.837803            NaN                  12288                
 14            14.12677            20.806446            NaN                  12288                
 14            14.13764            21.262495            0.103841             0                    
 14            14.14852            21.405682            0.110228             0                    
 14            14.15941            21.595583            0.114961             0                    
 14            14.17031            21.736109            0.111363             0                    
 14            14.18121            22.403275            0.109010             0                    
 14            14.19213            22.327894            0.100812             0                    
 14            14.20305            22.298655            0.098595             0                    
 14            14.21398            22.588112            0.098507             0                    
 14            14.22491            22.803484            0.093500             0                    
 14            14.23586            22.681877            0.086048             0                    
 14            14.24682            22.667339            0.081001             0                    
 14            14.25778            22.706861            0.080899             0                    
 14            14.26875            22.801355            0.081094             0                    
 14            14.27973            23.056108            0.081656             0                    
 14            14.29072            23.253294            0.079980             0                    
 14            14.30172            23.251831            0.077127             0                    
 14            14.31272            23.114227            0.077471             0                    
 14            14.32374            23.272993            0.080978             0                    
 14            14.33476            23.723673            0.086429             0                    
 14            14.34579            23.892141            0.087176             0                    
 14            14.35683            24.182182            0.085688             0                    
 14            14.36788            24.451536            0.087636             0                    
 14            14.37893            24.390543            0.089996             0                    
 14            14.39000            24.429853            0.097747             0                    
 14            14.40107            24.609419            0.099450             0                    
 14            14.41215            24.358467            0.095942             0                    
 14            14.42324            24.747078            0.096850             0                    
 14            14.43434            25.063477            0.098573             0                    
 14            14.44545            25.156994            0.103736             0                    
 14            14.45657            25.168509            0.101838             0                    
 14            14.46769            25.338686            0.098935             0                    
 14            14.47883            25.872639            NaN                  12288                
 14            14.48997            25.934658            NaN                  12288                
 14            14.50112            25.873560            NaN                  12288                
 14            14.51228            26.259180            NaN                  12288                
 14            14.52344            26.352211            0.093585             0                    
 14            14.53462            26.547647            0.088646             0                    
 14            14.54580            26.556213            0.087806             0                    
 14            14.55700            26.565166            NaN                  12288                
 14            14.56820            27.017902            NaN                  12288                
 14            14.57941            27.160286            0.088276             0                    
 14            14.59063            27.271870            NaN                  12288                
 14            14.60186            27.601780            NaN                  12288                
 14            14.61309            27.581892            0.085832             0                    
 14            14.62434            27.775213            NaN                  12288                
 14            14.63559            27.716007            NaN                  12288                
 14            14.64686            28.129223            0.085522             0                    
 14            14.65813            28.535404            0.085380             0                    
 14            14.66941            28.647806            0.086392             0                    
 14            14.68070            28.823978            0.088584             0                    
 14            14.69199            29.182573            0.094186             0                    
 14            14.70330            29.458139            0.090298             0                    
 14            14.71461            29.512589            0.089201             0                    
 14            14.72594            29.575779            0.089272             0                    
 14            14.73727            29.935163            0.093909             0                    
 14            14.74861            30.106949            0.094922             0                    
 14            14.75996            30.308739            0.094395             0                    
 14            14.77132            30.498060            0.093639             0                    
 14            14.78268            30.843159            0.094538             0                    
 14            14.79406            31.115852            0.098463             0                    
 14            14.80544            31.021564            0.099572             0                    
 14            14.81684            31.267153            0.099738             0                    
 14            14.82824            31.679588            0.101258             0                    
 14            14.83965            31.693029            0.099884             0                    
 14            14.85107            32.049961            0.105864             0                    
 14            14.86250            32.184631            0.107538             0                    
 14            14.87393            32.216465            0.108447             0                    
 14            14.88538            32.441765            0.108450             0                    
 14            14.89684            32.669670            0.108436             0                    
 14            14.90830            32.620007            0.111255             0                    
 14            14.91977            33.012100            0.116187             0                    
 14            14.93125            33.556366            0.122771             0                    
 14            14.94274            33.757961            0.123675             0                    
 14            14.95424            34.145355            0.124325             0                    
 14            14.96575            34.489273            0.129160             0                    
 14            14.97727            34.765697            0.134617             0                    
 14            14.98879            35.054508            0.142328             0                    
 14            15.00032            35.456154            0.145440             128                  
 14            15.01187            35.819515            0.145107             128                  
 14            15.02342            35.813400            0.149962             128                  
 14            15.03498            35.180470            0.150537             128                  
 14            15.04655            35.882057            0.164898             128                  
 14            15.05813            35.811241            0.167441             128                  
 14            15.06972            35.747318            0.167805             128                  
 14            15.08131            35.901970            0.173252             128                  
 14            15.09292            36.074368            0.177848             128                  
 14            15.10453            36.785786            0.192160             128                  
 14            15.11616            36.649788            0.196265             128                  
 14            15.12779            36.784866            0.195670             128                  
 14            15.13943            37.599709            0.200159             128                  
 14            15.15108            36.817150            0.193452             128                  
 14            15.16274            37.515800            0.205621             128                  
 14            15.17441            38.203381            0.214058             128                  
 14            15.18609            38.531231            0.213103             128                  
 14            15.19777            37.647465            0.199677             128                  
 14            15.20947            38.477940            0.201230             128                  
 14            15.22117            38.285484            0.194358             128                  
 14            15.23288            37.708908            0.199386             128                  
 14            15.24461            37.564831            0.198960             128                  
 14            15.25634            38.198277            0.202106             128                  
 14            15.26808            37.921284            0.193260             128                  
 14            15.27983            38.319683            0.198490             128                  
 14            15.29158            37.972851            0.211851             128                  
 14            15.30335            36.881805            0.208665             128                  
 14            15.31513            37.364368            0.266382             128                  
 14            15.32691            37.046310            0.309534             128                  
 14            15.33871            37.306301            NaN                  12416                
 14            15.35051            38.225491            NaN                  12416                
 14            15.36232            38.173244            0.318183             128                  
 14            15.37415            38.442398            0.312277             128                  
 14            15.38598            39.956852            0.334334             128                  
 14            15.39782            42.999660            0.367747             128                  
 14            15.40967            47.306114            0.429630             128                  
 14            15.42152            40.859333            0.405498             128                  
 14            15.43339            0.459583             0.010929             128                  
 13            15.10453            10.227062            0.053828             128                  
 13            15.11616            34.297897            0.134990             0                    
 13            15.12779            34.745731            0.144946             0                    
 13            15.13943            34.318714            0.152936             0                    
 13            15.15108            34.878883            0.154752             0                    
 13            15.16274            35.052357            0.150661             0                    
 13            15.17441            35.478489            0.148342             0                    
 13            15.18609            36.035088            0.148755             0                    
 13            15.19777            36.260342            0.149981             0                    
 13            15.20947            36.324104            0.139031             0                    
 13            15.22117            36.907356            0.130246             0                    
 13            15.23288            36.877743            0.118967             0                    
 13            15.24461            37.420113            0.115678             0                    
 13            15.25634            37.962093            0.118188             0                    
 13            15.26808            37.963806            0.116342             0                    
 13            15.27983            38.438065            NaN                  12288                
 13            15.29158            39.098907            NaN                  12288                
 13            15.30335            39.171165            0.108973             0                    
 13            15.31513            39.393497            0.113167             0                    
 13            15.32691            39.504936            0.119703             0                    
 13            15.33871            39.905167            0.125448             0                    
 13            15.35051            40.593918            0.130767             0                    
 13            15.36232            41.105358            0.129276             0                    
 13            15.37415            41.635212            0.134654             0                    
 13            15.38598            43.001713            0.145741             0                    
 13            15.39782            45.032356            0.156773             0                    
 13            15.40967            45.530979            0.167168             0                    
 13            15.42152            43.721264            0.153998             0                    
 13            15.43339            43.270721            0.146667             0                    
 13            15.44527            44.087578            0.148910             0                    
 13            15.45715            44.756721            0.153925             0                    
 13            15.46905            45.888603            0.161954             0                    
 13            15.48095            46.069920            0.151442             0                    
 13            15.49286            47.348312            0.144501             0                    
 13            15.50479            49.130150            0.140719             0                    
 13            15.51672            53.612312            0.145128             0                    
 13            15.52866            73.199997            0.173465             0                    
 13            15.54061            212.360855           0.393750             0                    
 13            15.55257            482.890411           NaN                  12288                
 13            15.56454            372.717682           NaN                  12288                
 13            15.57651            129.937088           0.218354             0                    
 13            15.58850            54.854027            0.124009             0                    
 13            15.60049            50.707462            0.122348             0                    
 13            15.61250            50.608097            0.119715             0                    
 13            15.62451            51.221352            0.117196             0                    
 13            15.63654            51.353909            0.112254             0                    
 13            15.64857            51.419056            0.113026             0                    
 13            15.66061            51.646538            0.116594             0                    
 13            15.67266            52.001953            0.118069             0                    
 13            15.68472            52.799301            0.118826             0                    
 13            15.69679            53.831074            0.115933             0                    
 13            15.70887            55.859516            0.116815             0                    
 13            15.72096            56.726646            0.121960             0                    
 13            15.73306            55.173466            0.123273             0                    
 13            15.74517            54.791874            0.124736             0                    
 13            15.75728            55.505020            0.123873             0                    
 13            15.76941            56.936939            0.124951             0                    
 13            15.78154            57.415508            0.127690             0                    
 13            15.79369            57.004879            0.129040             0                    
 13            15.80584            57.616447            0.135507             0                    
 13            15.81800            58.378433            0.140125             0                    
 13            15.83018            58.707756            0.137119             0                    
 13            15.84236            59.372883            0.138345             0                    
 13            15.85455            59.825008            0.139886             0                    
 13            15.86675            60.449360            0.145939             0                    
 13            15.87896            60.539894            0.150681             0                    
 13            15.89118            61.920963            0.153102             0                    
 13            15.90341            62.680706            0.154757             0                    
 13            15.91565            62.299442            0.151112             0                    
 13            15.92789            63.935925            0.157869             0                    
 13            15.94015            63.878750            0.163746             0                    
 13            15.95242            63.550274            0.164509             0                    
 13            15.96469            64.354393            0.166256             0                    
 13            15.97698            65.591301            0.166001             0                    
 13            15.98927            66.575180            0.166418             0                    
 13            16.00158            66.400818            0.167679             128                  
 13            16.01389            67.614319            0.174312             0                    
 13            16.02621            68.595230            0.175510             0                    
 13            16.03855            68.050163            0.173606             128                  
 13            16.05089            68.381073            0.167782             128                  
 13            16.06324            69.899849            0.176032             128                  
 13            16.07560            68.577263            0.177252             128                  
 13            16.08797            69.356400            0.180329             128                  
 13            16.10035            70.721939            NaN                  12288                
 13            16.11274            71.654297            NaN                  12416                
 13            16.12514            71.794472            0.196064             128                  
 13            16.13755            72.474174            0.195774             0                    
 13            16.14997            72.257027            0.197609             0                    
 13            16.16240            73.290848            0.229259             128                  
 13            16.17483            74.451363            0.218579             128                  
 13            16.18728            72.523674            0.197621             0                    
 13            16.19974            74.196709            0.217151             0                    
 13            16.21220            74.808479            0.223298             128                  
 13            16.22468            76.951050            0.257706             128                  
 13            16.23716            74.517975            0.240583             128                  
 13            16.24966            75.259834            0.254262             128                  
 13            16.26216            74.320557            0.250928             128                  
 13            16.27468            76.648727            0.277344             128                  
 13            16.28720            75.170952            0.282690             128                  
 13            16.29973            79.059242            0.339455             128                  
 13            16.31228            78.716324            0.324647             0                    
 13            16.32483            80.302872            0.343466             0                    
 13            16.33739            81.925407            0.359481             0                    
 13            16.34996            83.067314            0.349419             0                    
 13            16.36255            79.344307            0.329214             0                    
 13            16.37514            85.152428            0.378763             0                    
 13            16.38774            85.493813            0.369269             0                    
 13            16.40035            85.166145            0.363824             0                    
 13            16.41297            80.926491            0.319076             0                    
 13            16.42560            83.606483            0.327783             0                    
 13            16.43824            84.537811            0.338423             0                    
 13            16.45089            84.255211            NaN                  12288                
 13            16.46355            85.427223            NaN                  12288                
 13            16.47622            82.949211            0.323358             0                    
 13            16.48890            84.682159            0.334995             0                    
 13            16.50159            86.339447            0.349317             128                  
 13            16.51428            87.491188            0.373334             128                  
 13            16.52699            83.621582            0.362610             128                  
 13            16.53971            85.030708            0.405157             128                  
 13            16.55244            85.991982            0.420873             128                  
 13            16.56518            84.783806            0.453192             128                  
 13            16.57792            82.504189            0.440568             128                  
 13            16.59068            10.454256            0.070748             128                  
 12            16.33739            59.282635            0.239060             128                  
 12            16.34996            74.316986            0.225474             0                    
 12            16.36255            75.493408            0.213655             0                    
 12            16.37514            75.193802            0.199382             0                    
 12            16.38774            75.582794            0.193860             0                    
 12            16.40035            77.190941            0.198808             0                    
 12            16.41297            77.347458            0.198761             0                    
 12            16.42560            77.685112            0.196947             0                    
 12            16.43824            78.412827            0.197345             0                    
 12            16.45089            78.987198            0.196805             0                    
 12            16.46355            80.291740            0.206407             0                    
 12            16.47622            79.610237            0.217334             0                    
 12            16.48890            80.456718            NaN                  12288                
 12            16.50159            81.830353            NaN                  12288                
 12            16.51428            81.068085            NaN                  12288                
 12            16.52699            81.030121            0.221980             0                    
 12            16.53971            82.079552            0.226197             0                    
 12            16.55244            81.718948            0.227026             0                    
 12            16.56518            82.663292            0.229151             0                    
 12            16.57792            82.559509            0.219637             0                    
 12            16.59068            81.880096            0.199037             0                    
 12            16.60345            84.164703            0.198247             0                    
 12            16.61622            83.817184            0.189518             0                    
 12            16.62901            84.737411            0.190196             0                    
 12            16.64181            86.215820            0.194636             0                    
 12            16.65461            85.747787            0.184670             0                    
 12            16.66743            86.751862            0.177305             0                    
 12            16.68026            87.792351            0.173843             0                    
 12            16.69309            88.275841            0.172425             0                    
 12            16.70594            89.136063            0.179467             0                    
 12            16.71879            89.207870            0.183781             0                    
 12            16.73166            90.048065            0.183514             0                    
 12            16.74453            90.257935            0.179009             0                    
 12            16.75742            91.381004            0.177385             0                    
 12            16.77031            92.267159            0.176763             0                    
 12            16.78322            91.801430            0.182157             0                    
 12            16.79613            92.042877            0.190961             0                    
 12            16.80906            93.808113            0.198943             0                    
 12            16.82199            95.097740            0.201892             0                    
 12            16.83494            95.223991            0.195570             0                    
 12            16.84789            93.922966            0.192099             0                    
 12            16.86086            94.338135            0.203330             0                    
 12            16.87383            97.098053            0.220475             0                    
 12            16.88682            97.243118            0.223748             0                    
 12            16.89981            96.334854            0.217735             0                    
 12            16.91282            97.031036            0.213842             0                    
 12            16.92583            99.200821            0.216456             0                    
 12            16.93886            99.108597            0.224248             0                    
 12            16.95189            98.917122            0.230791             0                    
 12            16.96494            99.489563            0.237211             0                    
 12            16.97799            100.948906           0.232920             0                    
 12            16.99106            103.193947           0.231763             0                    
 12            17.00413            101.765091           0.224234             0                    
 12            17.01722            102.382454           0.227740             0                    
 12            17.03031            103.211166           0.238763             0                    
 12            17.04342            104.883751           0.246865             0                    
 12            17.05653            104.923386           0.243530             0                    
 12            17.06966            106.753593           0.239318             0                    
 12            17.08280            109.574135           0.247348             0                    
 12            17.09594            107.186020           0.233495             0                    
 12            17.10910            109.630905           0.246014             0                    
 12            17.12226            108.652153           0.249337             0                    
 12            17.13544            109.802124           0.250227             0                    
 12            17.14863            108.953842           0.237895             0                    
 12            17.16182            107.920921           NaN                  12288                
 12            17.17503            109.755142           NaN                  12288                
 12            17.18824            111.304321           0.250358             0                    
 12            17.20147            112.160835           0.263139             0                    
 12            17.21471            112.133728           0.260213             0                    
 12            17.22796            111.323227           0.252797             0                    
 12            17.24121            115.310326           0.268926             0                    
 12            17.25448            114.776772           NaN                  12288                
 12            17.26776            113.679420           NaN                  12288                
 12            17.28105            112.712868           0.267936             0                    
 12            17.29434            116.705170           0.291022             0                    
 12            17.30765            119.608170           0.306373             0                    
 12            17.32097            116.025818           0.275238             0                    
 12            17.33430            119.158615           0.285498             0                    
 12            17.34764            120.618317           0.295897             0                    
 12            17.36099            118.952072           0.299405             0                    
 12            17.37435            123.475548           0.320133             0                    
 12            17.38772            122.825089           0.312993             0                    
 12            17.40110            122.630707           0.311222             0                    
 12            17.41449            120.584785           0.294816             0                    
 12            17.42789            124.002518           0.308764             0                    
 12            17.44130            122.854355           0.304483             128                  
 12            17.45472            121.796677           0.312066             128                  
 12            17.46816            120.761467           0.303497             128                  
 12            17.48160            124.481125           0.311749             128                  
 12            17.49505            122.554459           0.294839             128                  
 12            17.50851            122.173149           0.290694             128                  
 12            17.52199            127.787163           0.313945             128                  
 12            17.53547            126.305435           NaN                  12416                
 12            17.54896            125.103951           NaN                  12416                
 12            17.56247            125.342255           0.293508             0                    
 12            17.57598            126.939888           0.295913             0                    
 12            17.58951            127.197929           0.291588             0                    
 12            17.60304            125.995468           0.289175             0                    
 12            17.61659            124.450996           2.031743             128                  
 12            17.63015            127.462593           1.187647             128                  
 12            17.64371            127.535339           0.335637             128                  
 12            17.65729            125.900948           0.325764             128                  
 12            17.67088            132.522964           0.429416             128                  
 12            17.68448            136.344574           0.381552             128                  
 12            17.69809            134.107437           0.393242             0                    
 12            17.71170            130.221985           0.377552             0                    
 12            17.72533            131.726379           0.402591             0                    
 12            17.73897            131.904144           0.424964             0                    
 12            17.75263            135.154724           0.486370             0                    
 12            17.76629            132.827820           0.441933             0                    
 12            17.77996            142.566711           0.537745             0                    
 12            17.79364            134.918365           0.481322             0                    
 12            17.80733            132.760880           0.471551             0                    
 12            17.82104            138.141449           0.503770             128                  
 12            17.83475            135.546829           0.485399             128                  
 12            17.84847            131.060928           0.453936             128                  
 12            17.86221            132.697784           0.441297             128                  
 12            17.87595            135.396133           0.450452             128                  
 12            17.88971            139.147095           0.467197             128                  
 12            17.90348            137.581329           0.496106             128                  
 12            17.91725            133.578537           0.447541             128                  
 12            17.93104            67.417542            0.297448             128                  
 11            17.76629            1.156806             0.009751             128                  
 11            17.77996            106.855835           0.323419             128                  
 11            17.79364            124.498085           0.321898             0                    
 11            17.80733            124.252136           0.310320             0                    
 11            17.82104            124.523209           0.300655             0                    
 11            17.83475            127.215622           0.293403             0                    
 11            17.84847            130.944565           0.295216             0                    
 11            17.86221            129.244293           0.269652             0                    
 11            17.87595            131.445526           0.269276             0                    
 11            17.88971            131.524368           0.268653             0                    
 11            17.90348            131.110092           0.276502             0                    
 11            17.91725            131.839386           0.286144             0                    
 11            17.93104            131.498123           0.287538             0                    
 11            17.94484            131.684738           0.288189             0                    
 11            17.95865            132.181030           0.288808             0                    
 11            17.97247            135.273773           0.305183             0                    
 11            17.98630            134.532745           0.313350             0                    
 11            18.00014            133.767914           0.323131             0                    
 11            18.01399            136.461151           0.335893             0                    
 11            18.02785            136.540955           0.326515             0                    
 11            18.04173            138.318634           0.323138             0                    
 11            18.05561            137.628891           0.313576             0                    
 11            18.06951            137.847580           0.310994             0                    
 11            18.08341            137.013458           0.312083             0                    
 11            18.09733            138.995514           0.314970             0                    
 11            18.11125            144.205887           0.314907             0                    
 11            18.12519            143.034714           0.292103             0                    
 11            18.13914            141.989670           0.273680             0                    
 11            18.15310            141.225845           0.258738             0                    
 11            18.16706            144.562317           0.272026             0                    
 11            18.18104            144.972870           0.273290             0                    
 11            18.19504            145.651276           0.270594             0                    
 11            18.20904            144.152740           0.259320             0                    
 11            18.22305            141.829102           0.242596             0                    
 11            18.23707            145.779404           0.242459             0                    
 11            18.25111            146.758118           0.242335             0                    
 11            18.26515            146.997009           0.251209             0                    
 11            18.27921            148.632935           0.263100             0                    
 11            18.29327            149.251495           0.271286             0                    
 11            18.30735            148.006332           0.268077             0                    
 11            18.32144            149.105698           0.264249             0                    
 11            18.33554            151.119949           0.272363             0                    
 11            18.34965            152.832108           0.281388             0                    
 11            18.36377            152.283478           0.287961             0                    
 11            18.37790            154.785034           0.311126             0                    
 11            18.39204            151.715103           0.308506             0                    
 11            18.40619            152.611816           0.303208             0                    
 11            18.42036            153.549210           0.297396             0                    
 11            18.43453            153.558685           0.296569             0                    
 11            18.44872            153.186417           0.296122             0                    
 11            18.46292            157.153503           0.319355             128                  
 11            18.47712            156.449707           0.325358             128                  
 11            18.49134            160.413162           0.330253             0                    
 11            18.50557            156.624191           NaN                  12288                
 11            18.51981            154.541748           NaN                  12288                
 11            18.53406            158.856094           0.302891             0                    
 11            18.54833            159.548035           0.315009             0                    
 11            18.56260            154.919250           0.318549             0                    
 11            18.57688            162.154343           NaN                  12288                
 11            18.59118            163.687073           NaN                  12288                
 11            18.60549            160.898148           0.334103             0                    
 11            18.61980            164.924011           0.336516             0                    
 11            18.63413            164.214813           0.328973             0                    
 11            18.64847            167.803864           0.351652             0                    
 11            18.66282            171.157288           0.362208             0                    
 11            18.67718            191.362122           0.389092             0                    
 11            18.69156            277.463074           NaN                  12288                
 11            18.70594            575.975037           NaN                  12288                
 11            18.72033            598.973083           NaN                  12288                
 11            18.73474            317.190796           0.522923             0                    
 11            18.74916            183.478149           0.370906             128                  
 11            18.76359            178.161575           0.390599             128                  
 11            18.77802            171.271729           0.376232             0                    
 11            18.79247            165.809708           0.354405             0                    
 11            18.80694            168.767746           0.343140             0                    
 11            18.82141            172.778885           0.353826             0                    
 11            18.83589            174.701904           0.362822             0                    
 11            18.85039            168.441315           0.346255             0                    
 11            18.86489            171.441193           0.373168             0                    
 11            18.87941            172.481430           0.384607             0                    
 11            18.89394            174.464462           0.375701             128                  
 11            18.90848            173.137115           0.365850             128                  
 11            18.92303            171.868790           0.351952             0                    
 11            18.93759            180.362747           0.372666             0                    
 11            18.95216            178.300125           0.379142             0                    
 11            18.96675            173.586517           0.375192             0                    
 11            18.98134            180.125748           0.387128             0                    
 11            18.99595            185.117722           0.404295             0                    
 11            19.01057            173.555618           0.353561             0                    
 11            19.02520            175.020676           0.346884             0                    
 11            19.03984            176.919785           0.348366             128                  
 11            19.05449            182.100632           0.377462             128                  
 11            19.06915            189.327713           NaN                  12416                
 11            19.08382            178.259415           NaN                  12416                
 11            19.09851            174.906082           0.391000             0                    
 11            19.11321            181.623367           0.543687             128                  
 11            19.12792            181.730896           0.413639             128                  
 11            19.14263            176.585724           0.402148             128                  
 11            19.15737            178.511536           0.450872             128                  
 11            19.17211            179.408859           0.475511             128                  
 11            19.18686            177.119598           0.488131             128                  
 11            19.20163            180.368408           0.508760             128                  
 11            19.21640            180.279800           0.491048             128                  
 11            19.23119            171.397156           0.450130             0                    
 11            19.24599            183.399231           0.532730             0                    
 11            19.26080            188.663223           0.581862             0                    
 11            19.27562            180.374222           0.531140             0                    
 11            19.29045            199.969925           0.677670             0                    
 11            19.30530            180.199890           0.554112             0                    
 11            19.32015            186.785660           0.565994             0                    
 11            19.33502            182.515381           0.543624             128                  
 11            19.34990            186.840057           0.548276             128                  
 11            19.36479            183.749832           0.528214             128                  
 11            19.37969            181.835770           0.549723             128                  
 11            19.39461            172.455826           0.487496             128                  
 11            19.40953            178.712555           0.492360             128                  
 11            19.42447            179.546463           0.492723             128                  
 11            19.43941            174.241486           0.488908             128                  
 11            19.45437            170.998322           0.454858             128                  
 11            19.46934            184.493408           0.564523             128                  
 11            19.48433            175.261887           10.922973            128                  
 11            19.49932            169.670883           1.779099             128                  
 11            19.51432            46.827579            0.211534             128                  
