\wavsamp version 5.1 (Wed Apr 20 08:45:04 PDT 2005)
\processing time 13:47:36 PST 11/02/2007
\character channelID = 1
\char HISTORY ========== Parameters supplied to RIDGE program below ==========
\char HISTORY PROCESS 2010/09/24 19:51:46
\char HISTORY ridge v1.15  (nl_and_params v1.9)
\char HISTORY WAVSAMP_FILE = ./cal/wavsamp.tbl
\char HISTORY PROFILE_FILE = profile.tbl
\char HISTORY PCT_LO = 25.0, percent
\char HISTORY PCT_HI = 75.0, percent
\char HISTORY NAMELIST_FILE = ./cdf/ridge.nl
\char HISTORY ========== RIDGE processing results summary below ==========
\char HISTORY FIND PEAKS: YES
\char HISTORY OVERALL Max DN=819.49 at PCT=74.88, found in region 0
\char HISTORY MEDIAN FILTER not used.
\char HISTORY PERCENTAGE = 74.88  (cut was performed here)
\char HISTORY MAX_SIGNAL = 819.49  (maximum signal value in DN)
\char HISTORY CUT_POS = 74.88  (pct at which the max signal was found)
\char HISTORY MAX_SIGNAL_IN_REGION = 0  (region where max signal was found)
\COMMENT ========== Keywords from PROFILE table file below ==========
\char NAXIS   =                    2 / STANDARD FITS FORMAT
\char NAXIS1  =                  128
\char NAXIS2  =                  128
\char ORIGIN  = 'Spitzer Science Center' / Organization generating this FITS file
\char CREATOR = 'S18.18.0'           / SW version used to create this FITS file
\char TELESCOP= 'Spitzer '
\char INSTRUME= 'IRSX    '
\char CAL_SET = 'C18.18PRE25.A'      / ID for the set of CAL files used
\char CHNLNUM =                    1 / 0=SL, 1=SH, 2=LL, 3=LH
\char FILENAME= 'IRSX.1.0004118272.0005.0000.01.mipl.fits' / File name
\char FILETYPE= 'fits-irs2d-flux'
\char EXPTYPE = 'sp      '           / Exposure Type
\char REQTYPE = 'AOR     '           / Request type (AOR,IER, or SER)
\char AOT_TYPE= 'IrsStare'           / Observation Template Type
\char AORLABEL= 'IRSS-tlrgto-D2-019B' / AOR Label
\char FOVNAME = 'IRS_Short-Hi_2nd_Position' / Field of View Name
\char READMODE= 'RAW     '           / Readout Mode
\char 
\char           / PROPOSAL INFORMATION
\char 
\char OBSRVR  = 'Thomas Roellig'     / Observer Name
\char OBSRVRID=                   23 / Observer ID of Principal Investigator
\char PROCYCL =                    1 / Proposal Cycle
\char PROGID  =                   45 / Program ID
\char PROTITLE= 'Deuterium Enrichment in PAHs' / Program Title
\char PROGCAT =                   29 / Program Category
\char 
\char           / TIME AND EXPOSURE INFORMATION
\char 
\char DATE_OBS= '2004-03-23T08:09:03.458' / Date & time (UTC) at DCE start
\char MJD_OBS =      53087.340806675 / Program calkeywords trimmed-average result
\char UTCS_OBS=     133301445.696375 / Program calkeywords trimmed-average result
\char SCLK_OBS=     764496714.994688 / Program calkeywords trimmed-average result
\char SAMPTIME=               1.0486 / [sec] Sample integration time
\char REQMODE =                    5 / ID for mode or type of request
\char EXPSTRTC=            764496605 / Exposure Start Timestamp Coarse
\char EXPSTRTF=                26115 / Exposure Start Timestamp Fine
\char GRPARVTC=            764496616 / [sec] Coarse Spacecraft Group Time
\char GRPARVTF=                    0 / [sec] Fine Spacecraft Group Time
\char AIRSCMDN=                   16 / Commanded number of DCEs for IRS
\char AIRS_DET=                    1 / Selected IRS detector for exposure command
\char AIRSEXPM=                    1 / Current Mode of the IRS Exp Manager
\char GRPTIME =               2.0972 / [sec] Group (w/ spin) integration time
\char DEADTIME=               6.2916 / [sec] Reset + boost(s) time
\char RAMPTIME=                 6.29 / [sec] Ramp (total DCE) integration time
\char EXPTOT_T=               100.67 / [sec] Integr. time for all DCEs in exposure
\char AIRSERCT=                    0 / Number of IRS exposure errors
\char 
\char           / TARGET AND POINTING INFORMATION
\char 
\char OBJECT  = 'Orion BarIonized'   / Target Name
\char OBJTYPE = 'TargetFixedSingle'  / Target Type
\char RA_HMS  = '05h35m19.5s'        / [hh:mm:ss.s] RA_SLT or CRVAL1 in sexagesimal
\char DEC_DMS = '-05d24m48s'         / [dd:mm:ss] DEC_SLT or CRVAL2 in sexagesimal
\char RA_RQST =     83.8309583333334 / [deg] Commanded RA referenced to commanded FOV
\char DEC_RQST=    -5.41302777777778 / [deg] Commanded Dec referenced to commanded FOV
\char PA_RQST =     270.333042985026 / [deg] Requested pos. angle of axis 2 (E of N)
\char PM_RA   =                   0. / [arcsec/yr] Proper Motion in RA (J2000)
\char PM_DEC  =                   0. / [arcsec/yr] Proper Motion in Dec (J2000)
\char CRDER1  = 0.000299559372915011 / Program calkeywords trimmed-average result
\char CRDER2  = 0.000299695009577123 / Program calkeywords trimmed-average result
\char SIGRA   =  0.00783197482747475 / [arcsec] RMS dispersion of RA over DCE
\char SIGDEC  =  0.00565041808147313 / [arcsec] RMS dispersion of DEC over DCE
\char SIGPA   =   0.0340012484780177 / [arcsec] RMS dispersion of PA over DCE
\char PTGDIFF =    0.292766041906246 / [arcsec] offset btwn actual and rqsted pntng
\char PTGDIFFX=      0.1320175491608 / [arcsec] requested - actual pntg along axis 1
\char PTGDIFFY=    0.261302547106548 / [arcsec] requested - actual pntg along axis 2
\char RA_REF  =     83.8309583333333 / [deg] Commanded RA (J2000) of ref. position
\char DEC_REF =    -5.41302777777777 / [deg] Commanded Dec (J2000) of ref. position
\char USEDBPHF=                    T / T if Boresight Pointing History File was used.
\char RMS_JIT =  0.00552018320350284 / Program calkeywords trimmed-average result
\char RMS_JITY=  0.00349314725414598 / Program calkeywords trimmed-average result
\char RMS_JITZ=  0.00417354342810295 / Program calkeywords trimmed-average result
\char RA_FOV  =     83.8309371977743 / [deg] RA at FOVID averaged over DCE
\char DEC_FOV =    -5.41310633036172 / [deg] DEC at FOVID averaged over DCE
\char PA_FOV  =    -48.2004105404914 / [deg] PA at FOVID averaged over DCE
\char RA_SLT  =     83.8313198406199 / [deg] RA at slit center averaged over DCE
\char DEC_SLT =    -5.41344653035151 / [deg] DEC at slit center averaged over DCE
\char PA_SLT  =    -48.2004475404903 / [deg] PA at slit center averaged over DCE
\char CSDRADEC= 6.92422470653546E-06 / [deg] Costandard deviation in RA and Dec
\char CSD_JTYZ=  0.00218515838158022 / [arcsec] Costandard deviation of jitter in YZ
\char BPHFNAME= 'BPHF.0764467200.04.pntg' / Boresight Pointing History Filename
\char FOVVERSN= 'BodyFrames_FTU_13Aa.xls' / FOV/BodyFrames file version used
\char VHELCORR=                 -26. / [km/sec] Correction to heliocentric velocity
\char VLSRCORR=                 -44. / [km/sec] Correction to local standard of rest
\char SPTZR_X =    -149238752.213576 / [km] Heliocentric x position
\char SPTZR_Y =       4858775.187749 / [km] Heliocentric y position
\char SPTZR_Z =        -16073.068913 / [km] Heliocentric z position
\char SPTZR_VX=             -1.09006 / [km/sec] Heliocentric x velocity
\char SPTZR_VY=           -27.297181 / [km/sec] Heliocentric y velocity
\char SPTZR_VZ=           -12.325245 / [km/sec] Heliocentric z velocity
\char ET_OBS  =        133301407.644 / [sec] DCE start time (TDB seconds past J2000)
\char HMJD_OBS=        53087.3391927 / Corresponding Heliocen. Mod. Julian Date
\char 
\char 
\char           / PHOTOMETRY (IRS IMAGING)
\char 
\char BUNIT   = 'e-/sec  '           / Units of image data
\char 
\char           / SPECTROPHOTOMETRY IRS SH, LH (CHNLNUM 1, 3)
\char 
\char FLXCON11=           105.259789 / [electrons/sec/Jy] Flux conversion Order 11
\char FLXERR11=                124.5 / Flux conversion uncertainties Order 11
\char FLXCON12=           116.286804 / [electrons/sec/Jy] Flux conversion Order 12
\char FLXERR12=                124.5 / Flux conversion uncertainties Order 12
\char FLXCON13=           126.412613 / [electrons/sec/Jy] Flux conversion Order 13
\char FLXERR13=                124.5 / Flux conversion uncertainties Order 13
\char FLXCON14=            136.83342 / [electrons/sec/Jy] Flux conversion Order 14
\char FLXERR14=                124.5 / Flux conversion uncertainties Order 14
\char FLXCON15=           148.767761 / [electrons/sec/Jy] Flux conversion Order 15
\char FLXERR15=                124.5 / Flux conversion uncertainties Order 15
\char FLXCON16=           161.639481 / [electrons/sec/Jy] Flux conversion Order 16
\char FLXERR16=                124.5 / Flux conversion uncertainties Order 16
\char FLXCON17=           175.408447 / [electrons/sec/Jy] Flux conversion Order 17
\char FLXERR17=                124.5 / Flux conversion uncertainties Order 17
\char FLXCON18=           182.315125 / [electrons/sec/Jy] Flux conversion Order 18
\char FLXERR18=                124.5 / Flux conversion uncertainties Order 18
\char FLXCON19=           212.186325 / [electrons/sec/Jy] Flux conversion Order 19
\char FLXERR19=                124.5 / Flux conversion uncertainties Order 19
\char FLXCON20=           246.369156 / [electrons/sec/Jy] Flux conversion Order 20
\char FLXERR20=                124.5 / Flux conversion uncertainties Order 20
\char 
\char           / GENERAL MAPPING KEYWORDS
\char 
\char DBEXPOID=              1095774 / Current Exposure ID
\char 
\char           / IRS PEAKUP KEYWORDS
\char 
\char HP_CENQ =                    0 / Peakup centroid quality code
\char APKUPCEN=                    1 / Status of the peakup centroid
\char AXCNTRD1=                10785 / [centipixels] X value of the brightest centroid
\char AYCNTRD1=                 2812 / [centipixels] Y value of the brightest centroid
\char AXCNTRD2=                11435 / [centipixels] X value of the second brightest c
\char AYCNTRD2=                 1702 / [centipixels] Y value of the second brightest c
\char AINTENS1=                13149 / [counts] Intensity value of the brightest centr
\char AINTENS2=                10125 / [counts] Intensity value of the second brightes
\char APKUPXCE=                10785 / [centipixels] X value of the centroid to be ret
\char APKUPYCE=                 2812 / [centipixels] Y value of the centroid to be ret
\char 
\char 
\char           / DATA FLOW KEYWORDS
\char 
\char DATE    = '2010-09-25T02:47:15' / file creation date (YYYY-MM-DDThh:mm:ss UT)
\char AORKEY  = '4118272 '           / AOR or EIR key. Astrnmy Obs Req/Instr Eng Req
\char EXPID   =                    5 / Exposure ID (0-9999)
\char DCENUM  =                    0 / DCE number (0-9999)
\char TLMGRPS =                    4 / Number of expected telemetry groups
\char FILE_VER=                    1 / Version of the raw file made by SIS
\char RAWNAME = 'IRSX.1.0004118272.0005.0000.01.mipl.fits' / Raw data file name
\char SIS_SVER= 'J5.2.3  '           / SIS SW VERsion
\char CPT_VER = '3.0.95  '           / Channel Param Table FOS version
\char CTD_VER = '3.0.94S '           / Cmded telemetry data version
\char EXPDFLAG=                    F / (T/F) expedited DCE
\char MISS_LCT=                    0 / Total Missed Line Cnt in this FITS
\char MANCPKT =                    F / T if this FITS is Missing Ancillary Data
\char MISSDATA=                    F / T if this FITS is Missing Image Data
\char PAONUM  =                  423 / PAO Number
\char CAMPAIGN= 'IRSX002900'         / Campaign
\char DCEID   =             12059608 / Data-Collection-Event ID
\char DCEINSID=              1820944 / DCE Instance ID
\char DPID    =            326951259 / Data Product Instance ID
\char PIPENUM =                  202 / Ensemble-information
\char SOS_VER =                   1. / Data-Product Version
\char PLVID   =                    9 / Pipeline Version ID
\char CALID   =                    3 / CalTrans Version ID
\char ORIGIN0 = 'JPL_FOS '           / site where RAW FITS files was written
\char CREATOR0= 'J5.2.3  '           / SW system that created RAW FITS
\char 
\char XTCHINSQ=                    5 / Number of rows with poor SH/LH optical crosstal
\char XTKUNCOR=                    0 / Number of rows with no SH/LH optical crosstalk
\char GAIN1   =                  4.6 / e/DN conversion (readout channel 1)
\char GAIN2   =                  4.6 / e/DN conversion (readout channel 2)
\char GAIN3   =                  4.6 / e/DN conversion (readout channel 3)
\char GAIN4   =                  4.6 / e/DN conversion (readout channel 4)
\char BASECH1 =             34253.87 / Trimmed mean channel 1 signal in reference unil
\char BASECH2 =             33702.14 / Trimmed mean channel 2 signal in reference unil
\char BASECH3 =              30353.2 / Trimmed mean channel 3 signal in reference unil
\char BASECH4 =              34974.9 / Trimmed mean channel 4 signal in reference unil
\char 
\char FBIDDARK=                  551
\char FBIDFLAT=                 1085
\char FBIDLNCR=                   23
\char FBIDLNMD=                  237
\char FBIDOMSK=                   48
\char FBIDPMSK=                  108
\char FBIDWSMP=                 1066
\char FBIDUMSK=                   67
\char FBIDWSOF=                 1067
\char FBIDWSOM=                 1068
\char FBIDWSWA=                 1065
\char FBIDFLXC=                 1202
\char FBIDFMSK=                   72
\char FBIDCALS=                 1212
\char FBIDLNSC=                  506
\char CKWPROC = 'calkeywords'        / PERFORM CALKEYWORDS OPERATIONS
\char CKWVERSN=                 3.40 / Version number of calkeywords program
\char ACTUALN =                   16 / Ensemble-information
\char EXPECTN =                   16 / Ensemble-information
\char ENSID   =               182784 / Ensemble-information
\char EPVERSN =                   11 / Ensemble-information
\char CALTYPE = 'coadd   '           / Ensemble-information
\char EPID    =              7229529 / SODB cal-table metadata-record index
\char CKWCENF1=                  0.9 / Central trim fraction for mean (=0 for median)
\char CKWCENF2=                  0.9 / Central trim fraction for standard deviation
\char CKWNLFIL= 'calkeywords.nl'
\char CKWILIST= 'inputlist_coadd'
\char CKWKLIST= 'calkeywords_inputlist_coadd2d.dat'
\char CKWEINFO= 'ensemble_info.txt'
\char CKWOFIL1= 'coadd2d.fits'
\char CKWLGFIL= 'stdout  '
\HISTORY PROCESS 2010/09/24 19:51:45
\HISTORY profile v3.6  (integrate (library) v1.31, nl_and_params v1.9)
\HISTORY INFILE = coadd2d.fits
\HISTORY WAVSAMP_FILE = ./cal/wavsamp.tbl
\HISTORY N_CUTS = 400,
\HISTORY BMASKFILE = coadd2d_amask.fits
\HISTORY BMASKFILE_FATAL = 29056,
\HISTORY NAMELIST_FILE = ./cdf/profile.nl
\int CHNLNUM = 1
\int FOVID   = 51
\char HISTORY PROCESS 2010/09/24 19:51:47
\char HISTORY extract v5.6  (integrate (library) v1.31, nl_and_params v1.9)
\char HISTORY INFILE = coadd2d.fits
\char HISTORY RIDGE_TABLE = ridge.tbl
\char HISTORY BMASKFILE = coadd2d_amask.fits
\char HISTORY UNCERFILE = coadd2d_unc.fits
\char HISTORY BMASKFATAL = 29056,
\char HISTORY NAMELIST_FILE = ./cdf/extract.nl
\char HISTORY FULL_SLIT_EXTRACT = 1,
\char HISTORY FLAG_NAN_DROP = 1
\float FCON_UNC = 124.500000
\char HISTORY PROCESS 2010/09/24 19:51:48
\char HISTORY irs_tune v3.4  (nl_and_params v1.9)
\char HISTORY INFILE = extract.tbl
\char HISTORY INFILE = ./cal/fluxcon.tbl
\char HISTORY UP_DOWN_MODE = tune_down
\char HISTORY APPLY = 3,
\char HISTORY NAMELIST_FILE = ./cdf/irs_tune.nl
|order        |wavelength         |flux_density        |error               |bit-flag            |
|int          |real               |real                |real                |int                 |
|             |                   |Jy                  |Jy                  |                    |
 20            9.88629             2.319037             0.013396             128                  
 20            9.89390             6.840857             0.030092             0                    
 20            9.90151             6.924241             0.030464             0                    
 20            9.90913             6.868220             0.027423             0                    
 20            9.91675             6.797458             0.028839             0                    
 20            9.92439             6.751441             0.030825             0                    
 20            9.93202             6.797460             0.028273             0                    
 20            9.93967             6.793749             0.025596             0                    
 20            9.94731             6.868374             0.025780             0                    
 20            9.95497             6.880124             0.023247             0                    
 20            9.96263             6.905720             0.020239             0                    
 20            9.97030             6.899698             0.019488             0                    
 20            9.97797             6.954767             0.019682             0                    
 20            9.98565             7.224361             0.018561             0                    
 20            9.99333             7.298604             0.017155             0                    
 20            10.00102            7.127285             0.017292             0                    
 20            10.00872            7.010303             0.017649             0                    
 20            10.01642            6.981690             0.016960             0                    
 20            10.02413            6.974041             0.016382             0                    
 20            10.03184            7.031233             0.017543             0                    
 20            10.03956            7.041871             0.018955             0                    
 20            10.04729            7.026728             0.018214             0                    
 20            10.05502            7.016644             0.018093             0                    
 20            10.06276            7.038119             0.020046             0                    
 20            10.07050            7.043802             0.020714             0                    
 20            10.07825            7.057333             0.020237             0                    
 20            10.08600            7.054519             0.021808             0                    
 20            10.09377            7.072324             0.023004             0                    
 20            10.10153            7.132875             0.021666             0                    
 20            10.10931            7.173397             0.020474             0                    
 20            10.11709            7.266254             0.021011             0                    
 20            10.12487            7.235227             0.019630             0                    
 20            10.13266            7.278711             0.017938             0                    
 20            10.14046            7.276814             0.017851             0                    
 20            10.14826            7.276244             0.018523             0                    
 20            10.15607            7.304000             0.017239             0                    
 20            10.16389            7.303830             0.016123             0                    
 20            10.17171            7.294019             0.016397             0                    
 20            10.17954            7.334198             0.016503             0                    
 20            10.18737            7.373364             NaN                  12288                
 20            10.19521            7.358048             NaN                  12288                
 20            10.20306            7.342558             0.015720             0                    
 20            10.21091            7.357727             0.015825             0                    
 20            10.21876            7.397686             0.015282             0                    
 20            10.22663            7.389235             0.015256             0                    
 20            10.23450            7.368149             0.015955             0                    
 20            10.24237            7.380054             0.015917             0                    
 20            10.25026            7.398804             0.015253             0                    
 20            10.25814            7.451868             0.015715             0                    
 20            10.26604            7.508019             0.016662             0                    
 20            10.27394            7.558955             0.016643             0                    
 20            10.28184            7.632639             0.016355             0                    
 20            10.28976            7.635624             0.017211             0                    
 20            10.29767            7.575256             0.018040             0                    
 20            10.30560            7.584556             0.017702             0                    
 20            10.31353            7.588206             0.017599             0                    
 20            10.32146            7.608156             0.018668             0                    
 20            10.32941            7.606063             0.019500             0                    
 20            10.33736            7.672401             0.019324             0                    
 20            10.34531            7.604205             0.019336             0                    
 20            10.35327            7.585526             0.020515             0                    
 20            10.36124            7.607166             0.020890             0                    
 20            10.36921            7.488402             0.019943             0                    
 20            10.37719            6.983356             0.018951             0                    
 20            10.38518            7.016448             0.020965             0                    
 20            10.39317            6.988724             0.020267             0                    
 20            10.40117            7.166525             0.019997             0                    
 20            10.40917            7.732544             0.023545             0                    
 20            10.41718            7.768877             0.024932             0                    
 20            10.42520            7.821700             0.023803             0                    
 20            10.43322            8.075577             0.024393             0                    
 20            10.44125            8.533281             0.027542             128                  
 20            10.44928            8.359035             0.028228             128                  
 20            10.45732            7.998325             0.026930             0                    
 20            10.46537            7.943497             0.027183             0                    
 20            10.47342            7.946887             0.029539             0                    
 20            10.48148            8.086523             0.030167             0                    
 20            10.48955            8.875120             0.030454             0                    
 20            10.49762            14.691438            0.037849             0                    
 20            10.50570            34.221287            0.063095             0                    
 20            10.51378            45.103420            0.077169             0                    
 20            10.52188            21.511028            0.052228             0                    
 20            10.52997            8.767014             0.035534             0                    
 20            10.53808            8.005421             0.036282             0                    
 20            10.54618            8.080538             0.036476             0                    
 20            10.55430            7.981835             0.038354             0                    
 20            10.56242            7.959080             0.042175             0                    
 20            10.57055            8.436726             0.048281             0                    
 20            10.57868            8.506588             0.046637             0                    
 20            10.58683            8.150922             NaN                  12416                
 20            10.59497            7.707613             NaN                  12416                
 20            10.60313            7.143009             0.057948             128                  
 20            10.61128            6.921537             0.041397             128                  
 20            10.61945            6.971464             0.046107             128                  
 20            10.62762            6.690071             0.051888             128                  
 20            10.63580            6.605646             0.056680             128                  
 20            10.64398            6.647165             0.062253             128                  
 20            10.65218            6.033423             0.077865             128                  
 20            10.66037            5.433279             0.092132             128                  
 20            10.66858            5.030707             0.097385             128                  
 20            10.67679            5.225927             0.132420             128                  
 20            10.68500            4.592639             0.277341             128                  
 20            10.69322            3.012060             0.388637             128                  
 20            10.70145            1.568742             0.184920             128                  
 19            10.40117            3.073265             0.012312             128                  
 19            10.40917            7.426392             0.021647             0                    
 19            10.41718            7.385522             0.022153             0                    
 19            10.42520            7.576445             0.024633             0                    
 19            10.43322            8.025568             0.026636             0                    
 19            10.44125            8.072357             0.025230             0                    
 19            10.44928            7.689438             0.025799             0                    
 19            10.45732            7.625744             0.027653             0                    
 19            10.46537            7.597958             0.024799             0                    
 19            10.47342            7.573031             0.022252             0                    
 19            10.48148            7.865908             0.022470             0                    
 19            10.48955            8.682391             0.022175             0                    
 19            10.49762            13.597935            0.024841             0                    
 19            10.50570            35.690453            NaN                  12288                
 19            10.51378            40.194427            NaN                  12288                
 19            10.52188            21.146122            0.026212             0                    
 19            10.52997            8.866756             0.016910             0                    
 19            10.53808            8.041360             0.016099             0                    
 19            10.54618            8.066294             0.016690             0                    
 19            10.55430            8.126697             0.016828             0                    
 19            10.56242            8.227439             NaN                  12288                
 19            10.57055            8.348475             NaN                  12288                
 19            10.57868            8.625937             0.019240             0                    
 19            10.58683            8.838017             0.019758             0                    
 19            10.59497            8.464936             0.018422             0                    
 19            10.60313            8.284454             0.019194             0                    
 19            10.61128            8.348334             0.020759             0                    
 19            10.61945            8.430673             0.021369             0                    
 19            10.62762            8.395840             0.021423             0                    
 19            10.63580            8.370870             0.022112             0                    
 19            10.64398            8.445716             0.023005             0                    
 19            10.65218            8.491570             0.022081             0                    
 19            10.66037            8.459414             0.019833             0                    
 19            10.66858            8.511304             0.020169             0                    
 19            10.67679            8.508731             0.020166             0                    
 19            10.68500            8.556285             0.019268             0                    
 19            10.69322            8.653904             0.018352             0                    
 19            10.70145            8.739182             0.018884             0                    
 19            10.70969            8.817857             0.018718             0                    
 19            10.71793            8.904459             0.017488             0                    
 19            10.72618            8.892357             0.017277             0                    
 19            10.73443            8.906102             0.017718             0                    
 19            10.74269            8.892023             0.017687             0                    
 19            10.75096            8.901931             0.016651             0                    
 19            10.75923            8.945439             0.016505             0                    
 19            10.76751            8.957746             0.017193             0                    
 19            10.77580            8.968100             0.017183             0                    
 19            10.78409            9.004390             0.016733             0                    
 19            10.79239            9.058377             0.016937             0                    
 19            10.80069            9.141270             0.017920             0                    
 19            10.80900            9.195265             0.018300             0                    
 19            10.81732            9.202003             0.017880             0                    
 19            10.82565            9.199265             0.018180             0                    
 19            10.83398            9.167224             0.019115             0                    
 19            10.84231            9.149417             0.019219             0                    
 19            10.85066            9.218447             0.018719             0                    
 19            10.85901            9.291655             0.019814             0                    
 19            10.86736            9.304262             0.020567             0                    
 19            10.87573            9.355021             0.020617             0                    
 19            10.88410            9.468851             0.020423             0                    
 19            10.89247            9.488903             0.021454             0                    
 19            10.90085            9.510798             0.022130             0                    
 19            10.90924            9.541249             0.022346             0                    
 19            10.91764            9.550655             0.021562             0                    
 19            10.92604            9.738729             0.023190             0                    
 19            10.93445            9.879813             0.024448             0                    
 19            10.94286            9.930827             0.024061             0                    
 19            10.95128            10.122458            0.024869             0                    
 19            10.95971            10.352877            0.025949             0                    
 19            10.96814            10.599960            0.027747             0                    
 19            10.97658            10.970061            0.028786             0                    
 19            10.98503            11.411636            0.028142             0                    
 19            10.99348            11.701609            0.029974             0                    
 19            11.00194            11.946623            0.032316             0                    
 19            11.01041            11.934574            0.031645             0                    
 19            11.01888            11.798413            0.031875             0                    
 19            11.02736            11.670929            0.033221             0                    
 19            11.03585            11.800324            0.036302             0                    
 19            11.04434            11.758618            0.035408             0                    
 19            11.05284            11.481190            0.032921             128                  
 19            11.06134            11.456701            0.036546             128                  
 19            11.06986            11.200718            0.039114             128                  
 19            11.07837            10.948063            0.034489             128                  
 19            11.08690            10.898657            0.034613             128                  
 19            11.09543            11.078256            0.037738             128                  
 19            11.10397            11.151411            0.040163             128                  
 19            11.11251            11.205538            0.039470             128                  
 19            11.12107            11.438617            0.040839             128                  
 19            11.12962            11.526187            0.044376             128                  
 19            11.13819            11.628113            0.046016             128                  
 19            11.14676            12.403594            0.049233             128                  
 19            11.15534            13.580088            0.055401             128                  
 19            11.16392            14.799040            0.062117             128                  
 19            11.17251            16.555717            0.069073             128                  
 19            11.18111            18.376627            0.072491             128                  
 19            11.18971            19.442558            0.075773             128                  
 19            11.19832            19.973133            0.091170             128                  
 19            11.20694            20.419853            0.102030             128                  
 19            11.21557            20.036726            0.099374             128                  
 19            11.22420            19.777473            0.110043             128                  
 19            11.23283            19.932194            0.122610             128                  
 19            11.24148            16.279940            0.188611             128                  
 19            11.25013            14.107552            0.115159             128                  
 19            11.25879            13.494619            0.109979             128                  
 19            11.26745            13.060433            0.172908             128                  
 19            11.27612            11.512700            0.211747             128                  
 19            11.28480            7.632550             0.141665             128                  
 19            11.29348            0.331727             0.007405             12416                
 18            10.96814            0.108031             0.000783             128                  
 18            10.97658            10.020407            0.035633             128                  
 18            10.98503            10.825820            0.033591             0                    
 18            10.99348            11.236924            0.030301             0                    
 18            11.00194            11.347801            0.028637             0                    
 18            11.01041            11.402159            0.028185             0                    
 18            11.01888            11.305997            0.025565             0                    
 18            11.02736            11.261071            0.023021             0                    
 18            11.03585            11.140235            0.022052             0                    
 18            11.04434            10.967872            0.022441             0                    
 18            11.05284            10.862464            0.022250             0                    
 18            11.06134            10.834929            0.021251             0                    
 18            11.06986            10.823690            0.021256             0                    
 18            11.07837            10.850770            0.022560             0                    
 18            11.08690            10.940913            0.023790             0                    
 18            11.09543            10.879272            0.023255             0                    
 18            11.10397            11.019965            0.024501             0                    
 18            11.11251            11.194577            0.026534             0                    
 18            11.12107            11.456870            0.027927             0                    
 18            11.12962            11.650728            0.027761             0                    
 18            11.13819            12.079631            0.027697             0                    
 18            11.14676            12.532227            0.027410             0                    
 18            11.15534            13.624727            0.027723             0                    
 18            11.16392            14.867552            0.026651             0                    
 18            11.17251            16.447281            0.026364             0                    
 18            11.18111            18.324789            0.028274             0                    
 18            11.18971            20.055470            0.028560             0                    
 18            11.19832            21.201431            0.027033             0                    
 18            11.20694            21.482773            0.026806             0                    
 18            11.21557            21.294556            0.026471             0                    
 18            11.22420            21.108614            0.026197             0                    
 18            11.23283            20.831564            0.025178             0                    
 18            11.24148            20.611666            0.024686             0                    
 18            11.25013            20.363245            0.025029             0                    
 18            11.25879            19.989431            0.025226             0                    
 18            11.26745            19.656633            0.024959             0                    
 18            11.27612            19.278477            0.024422             0                    
 18            11.28480            18.830194            0.024774             0                    
 18            11.29348            18.539179            0.025651             0                    
 18            11.30217            18.746540            0.026278             0                    
 18            11.31087            18.852081            0.026174             0                    
 18            11.31957            17.661291            0.026462             0                    
 18            11.32828            16.668034            0.026836             0                    
 18            11.33700            16.150763            0.026542             0                    
 18            11.34573            15.758594            0.026159             0                    
 18            11.35446            15.446612            0.026693             0                    
 18            11.36319            15.097091            0.028197             0                    
 18            11.37194            14.695978            0.027651             0                    
 18            11.38069            14.553479            0.027583             0                    
 18            11.38945            14.348660            0.028062             0                    
 18            11.39821            14.036129            0.029416             0                    
 18            11.40698            13.842758            0.029251             0                    
 18            11.41576            13.627101            0.028238             0                    
 18            11.42455            13.428367            0.028769             0                    
 18            11.43334            13.368602            0.030674             0                    
 18            11.44214            13.165405            0.029592             0                    
 18            11.45094            12.975036            0.028042             0                    
 18            11.45975            12.897367            0.029143             0                    
 18            11.46857            12.634893            0.029073             0                    
 18            11.47740            12.641262            0.029435             0                    
 18            11.48623            12.554779            0.028139             0                    
 18            11.49507            12.510932            0.028845             0                    
 18            11.50391            12.314836            0.029485             0                    
 18            11.51277            12.296586            0.029719             0                    
 18            11.52162            12.322127            0.029889             0                    
 18            11.53049            12.318559            0.029782             0                    
 18            11.53936            12.366002            0.030923             0                    
 18            11.54824            12.365205            0.032356             0                    
 18            11.55713            12.344170            0.031375             0                    
 18            11.56602            12.263272            0.030602             0                    
 18            11.57492            12.179016            0.032476             0                    
 18            11.58383            12.056136            0.033188             0                    
 18            11.59275            12.068670            0.032800             0                    
 18            11.60167            11.976754            0.032638             0                    
 18            11.61059            11.803869            0.033949             0                    
 18            11.61953            11.716025            0.034636             0                    
 18            11.62847            11.714269            0.034734             0                    
 18            11.63742            11.763793            0.036181             0                    
 18            11.64637            11.819709            0.038138             0                    
 18            11.65534            11.616592            0.038963             0                    
 18            11.66431            11.731308            0.040144             0                    
 18            11.67328            11.657083            0.038943             0                    
 18            11.68226            11.787688            NaN                  12288                
 18            11.69125            11.759287            NaN                  12288                
 18            11.70025            11.719339            0.044732             0                    
 18            11.70925            11.995946            0.047349             0                    
 18            11.71827            11.845029            0.050985             128                  
 18            11.72728            11.686505            0.052133             128                  
 18            11.73631            11.822210            0.054489             128                  
 18            11.74534            11.106879            0.045197             128                  
 18            11.75438            10.832562            0.043959             128                  
 18            11.76342            10.837713            NaN                  12416                
 18            11.77247            10.924319            NaN                  12416                
 18            11.78153            10.469973            0.044562             128                  
 18            11.79060            10.541355            0.044533             128                  
 18            11.79967            10.517866            0.046817             128                  
 18            11.80875            10.464124            0.049153             128                  
 18            11.81784            10.552712            0.051174             128                  
 18            11.82693            10.306064            0.047732             128                  
 18            11.83604            10.345595            0.050040             128                  
 18            11.84514            10.430121            0.054705             128                  
 18            11.85426            10.705737            0.058744             128                  
 18            11.86338            10.860614            0.060536             128                  
 18            11.87251            10.499599            0.062906             128                  
 18            11.88165            10.204898            NaN                  12416                
 18            11.89079            10.214458            NaN                  12416                
 18            11.89994            9.672672             0.189381             128                  
 18            11.90910            8.739488             0.133953             128                  
 18            11.91826            8.285776             0.100093             128                  
 18            11.92743            7.966730             0.338070             128                  
 18            11.93661            6.951695             0.185637             128                  
 18            11.94580            6.063390             0.127886             128                  
 18            11.95499            3.262888             NaN                  12416                
 18            11.96419            0.472210             NaN                  12416                
 17            11.61059            7.696303             0.025833             128                  
 17            11.61953            11.024642            0.026368             0                    
 17            11.62847            10.959785            0.025657             0                    
 17            11.63742            10.813107            0.024742             0                    
 17            11.64637            10.742290            0.023703             0                    
 17            11.65534            10.811476            0.023529             0                    
 17            11.66431            10.778458            0.024045             0                    
 17            11.67328            10.725946            0.024962             0                    
 17            11.68226            10.801968            0.025577             0                    
 17            11.69125            10.800589            0.025614             0                    
 17            11.70025            10.800982            0.027053             0                    
 17            11.70925            10.909574            0.029353             0                    
 17            11.71827            11.039483            0.030364             0                    
 17            11.72728            11.169641            0.028064             0                    
 17            11.73631            11.086562            0.027164             0                    
 17            11.74534            11.049505            NaN                  12288                
 17            11.75438            11.149775            NaN                  12288                
 17            11.76342            11.252525            0.022758             0                    
 17            11.77247            11.248096            0.021479             0                    
 17            11.78153            11.261314            0.021419             0                    
 17            11.79060            11.280910            0.020669             0                    
 17            11.79967            11.289204            NaN                  12288                
 17            11.80875            11.318826            NaN                  12288                
 17            11.81784            11.357334            0.018873             0                    
 17            11.82693            11.395577            0.019145             0                    
 17            11.83604            11.507550            0.019040             0                    
 17            11.84514            11.660804            0.018879             0                    
 17            11.85426            11.689888            0.019155             0                    
 17            11.86338            11.680361            0.020297             0                    
 17            11.87251            11.744595            0.020452             0                    
 17            11.88165            11.857141            0.020720             0                    
 17            11.89079            11.875965            0.020753             0                    
 17            11.89994            11.894287            0.022791             0                    
 17            11.90910            11.974464            NaN                  12288                
 17            11.91826            11.948737            NaN                  12288                
 17            11.92743            12.049539            0.023488             0                    
 17            11.93661            12.108158            0.024513             0                    
 17            11.94580            12.155517            0.025357             0                    
 17            11.95499            12.267328            0.025306             0                    
 17            11.96419            12.293324            0.024806             0                    
 17            11.97340            12.267250            0.024497             0                    
 17            11.98261            12.281446            0.025291             0                    
 17            11.99183            12.386568            0.024762             0                    
 17            12.00106            12.444668            0.023285             0                    
 17            12.01029            12.443374            0.024230             0                    
 17            12.01954            12.373451            0.023204             0                    
 17            12.02879            12.309924            0.022518             0                    
 17            12.03804            12.399282            0.022026             0                    
 17            12.04731            12.384460            0.021325             0                    
 17            12.05658            12.408682            0.022028             0                    
 17            12.06585            12.687518            0.022406             0                    
 17            12.07514            12.661566            0.021647             0                    
 17            12.08443            12.458823            0.021030             0                    
 17            12.09373            12.407264            0.021239             0                    
 17            12.10304            12.492549            0.021956             0                    
 17            12.11235            12.455878            0.021654             0                    
 17            12.12167            12.332225            0.020993             0                    
 17            12.13100            12.324900            0.021504             0                    
 17            12.14034            12.360338            0.021911             0                    
 17            12.14968            12.487652            0.022218             0                    
 17            12.15903            12.475289            NaN                  12288                
 17            12.16838            12.414652            NaN                  12288                
 17            12.17775            12.423479            0.022858             0                    
 17            12.18712            12.381808            0.023075             0                    
 17            12.19650            12.322463            0.022628             0                    
 17            12.20588            12.331170            0.022673             0                    
 17            12.21528            12.425447            0.023661             0                    
 17            12.22468            12.520126            0.024477             0                    
 17            12.23408            12.611036            0.024725             0                    
 17            12.24350            12.696368            0.024728             0                    
 17            12.25292            12.690235            0.025084             0                    
 17            12.26235            12.844137            0.026379             0                    
 17            12.27178            13.555564            0.027722             0                    
 17            12.28123            14.078383            0.028642             0                    
 17            12.29068            13.547278            0.028328             0                    
 17            12.30014            13.081285            NaN                  12288                
 17            12.30960            13.038441            NaN                  12288                
 17            12.31907            13.012880            NaN                  12288                
 17            12.32855            13.053153            NaN                  12288                
 17            12.33804            13.243724            0.032918             0                    
 17            12.34754            13.429217            0.034078             0                    
 17            12.35704            14.207952            0.035656             0                    
 17            12.36655            17.356703            0.039332             0                    
 17            12.37606            18.545336            0.045143             0                    
 17            12.38559            15.992507            0.042987             0                    
 17            12.39512            14.151753            0.042744             0                    
 17            12.40466            13.609408            0.042525             0                    
 17            12.41420            13.657234            0.045977             0                    
 17            12.42375            13.586149            0.047384             0                    
 17            12.43331            13.603585            0.049978             0                    
 17            12.44288            13.715373            0.050215             0                    
 17            12.45246            13.416445            0.047949             0                    
 17            12.46204            13.497536            0.050709             0                    
 17            12.47163            13.912575            0.059426             128                  
 17            12.48123            13.861566            0.063263             128                  
 17            12.49083            13.827100            0.063847             128                  
 17            12.50044            12.814312            0.052690             128                  
 17            12.51006            12.832660            0.057463             128                  
 17            12.51969            12.803978            0.061199             128                  
 17            12.52932            12.894294            0.061193             128                  
 17            12.53897            13.431650            0.063075             12416                
 17            12.54862            13.662393            0.064593             12416                
 17            12.55827            13.369669            0.066082             128                  
 17            12.56794            13.300629            0.066210             128                  
 17            12.57761            13.467855            0.067086             12416                
 17            12.58729            13.462428            0.065042             12416                
 17            12.59697            13.471131            0.071813             128                  
 17            12.60667            13.167833            NaN                  12416                
 17            12.61637            13.084433            NaN                  12416                
 17            12.62608            12.803124            0.074340             128                  
 17            12.63579            12.621885            0.076437             128                  
 17            12.64552            12.066038            0.081125             128                  
 17            12.65525            12.222301            0.095069             128                  
 17            12.66498            11.477436            0.096688             128                  
 17            12.67473            11.444818            0.124133             128                  
 17            12.68448            11.332863            0.330283             128                  
 17            12.69425            10.045200            0.237305             128                  
 17            12.70401            2.193449             0.060433             128                  
 16            12.31907            0.832493             0.003313             128                  
 16            12.32855            11.753177            0.035409             128                  
 16            12.33804            11.890806            0.034109             0                    
 16            12.34754            12.216178            0.032318             0                    
 16            12.35704            12.900364            0.032231             0                    
 16            12.36655            15.994823            0.034214             0                    
 16            12.37606            16.306797            0.031281             0                    
 16            12.38559            14.114064            0.026059             0                    
 16            12.39512            12.839964            0.024100             0                    
 16            12.40466            12.499699            0.023439             0                    
 16            12.41420            12.440785            0.022926             0                    
 16            12.42375            12.500276            0.022120             0                    
 16            12.43331            12.608984            0.021922             0                    
 16            12.44288            12.735180            0.022726             0                    
 16            12.45246            12.802402            0.023736             0                    
 16            12.46204            12.865967            0.023986             0                    
 16            12.47163            12.982544            0.024452             0                    
 16            12.48123            13.121362            0.024959             0                    
 16            12.49083            13.300911            0.026883             0                    
 16            12.50044            13.358023            0.027952             0                    
 16            12.51006            13.608301            0.028419             0                    
 16            12.51969            13.656859            0.028261             0                    
 16            12.52932            13.741302            0.027827             0                    
 16            12.53897            13.880181            0.028136             0                    
 16            12.54862            13.917512            NaN                  12288                
 16            12.55827            14.118459            NaN                  12288                
 16            12.56794            14.388618            0.023940             0                    
 16            12.57761            14.509806            0.023604             0                    
 16            12.58729            14.737761            0.023300             0                    
 16            12.59697            14.859387            0.022262             0                    
 16            12.60667            14.962424            0.021115             0                    
 16            12.61637            15.009722            NaN                  12288                
 16            12.62608            15.041765            NaN                  12288                
 16            12.63579            15.222656            0.021122             0                    
 16            12.64552            15.321257            0.020560             0                    
 16            12.65525            15.238572            0.019924             0                    
 16            12.66498            15.208754            0.020269             0                    
 16            12.67473            15.260400            0.020685             0                    
 16            12.68448            15.507605            0.020972             0                    
 16            12.69425            16.374186            0.021413             0                    
 16            12.70401            17.903299            0.022231             0                    
 16            12.71379            18.368811            0.023504             0                    
 16            12.72357            17.141838            NaN                  12288                
 16            12.73336            16.563181            NaN                  12288                
 16            12.74316            16.486267            0.022983             0                    
 16            12.75297            16.528057            0.023148             0                    
 16            12.76278            16.842325            0.024310             0                    
 16            12.77260            17.640490            0.025294             0                    
 16            12.78243            19.446592            NaN                  12288                
 16            12.79227            29.082985            NaN                  12288                
 16            12.80211            90.139305            0.056217             0                    
 16            12.81197            265.442505           0.165529             0                    
 16            12.82182            219.655380           0.149789             0                    
 16            12.83169            38.343929            0.041538             0                    
 16            12.84157            16.562632            0.027793             0                    
 16            12.85145            15.483532            0.027361             0                    
 16            12.86134            15.259997            0.028167             0                    
 16            12.87123            14.875444            0.028296             0                    
 16            12.88114            14.599492            0.027647             0                    
 16            12.89105            14.384865            0.027519             0                    
 16            12.90097            14.385586            0.028156             0                    
 16            12.91090            15.386694            0.029661             0                    
 16            12.92083            16.777336            0.030316             0                    
 16            12.93078            15.019790            0.028820             0                    
 16            12.94073            13.921717            0.028596             0                    
 16            12.95069            13.868486            0.029892             0                    
 16            12.96065            13.781534            0.029164             0                    
 16            12.97063            13.942316            0.029173             0                    
 16            12.98061            13.999742            0.029896             0                    
 16            12.99060            13.956053            0.030937             0                    
 16            13.00059            13.654626            0.030587             0                    
 16            13.01060            13.828382            0.030785             128                  
 16            13.02061            13.924753            0.030984             128                  
 16            13.03063            13.991687            0.032416             0                    
 16            13.04066            13.968190            0.033202             128                  
 16            13.05069            13.945497            0.034308             128                  
 16            13.06073            13.903231            0.032881             128                  
 16            13.07078            13.884287            0.034235             128                  
 16            13.08084            13.856796            0.034789             128                  
 16            13.09091            13.821878            0.035708             128                  
 16            13.10098            13.909476            0.035726             128                  
 16            13.11106            14.012663            0.035024             128                  
 16            13.12115            14.096681            0.036298             128                  
 16            13.13125            13.977173            0.036570             128                  
 16            13.14136            13.691184            0.036173             128                  
 16            13.15147            14.124935            0.038219             128                  
 16            13.16159            14.131590            NaN                  12416                
 16            13.17172            13.925869            NaN                  12416                
 16            13.18185            14.009289            0.037868             128                  
 16            13.19200            14.139519            0.038775             128                  
 16            13.20215            14.234115            0.038130             128                  
 16            13.21231            13.953182            0.036683             128                  
 16            13.22247            13.974233            0.037808             128                  
 16            13.23265            14.133700            0.041141             128                  
 16            13.24283            14.236613            0.040925             128                  
 16            13.25302            13.983802            0.039501             12416                
 16            13.26322            13.898480            NaN                  12416                
 16            13.27343            14.095201            NaN                  12416                
 16            13.28364            14.074683            0.043644             128                  
 16            13.29386            14.089295            0.044525             128                  
 16            13.30409            14.197040            0.044389             128                  
 16            13.31433            14.202478            0.045610             128                  
 16            13.32458            14.395276            0.051048             128                  
 16            13.33483            14.234142            0.052885             128                  
 16            13.34509            13.988167            0.052857             128                  
 16            13.35536            14.075013            0.054589             128                  
 16            13.36564            14.039836            0.060242             128                  
 16            13.37593            13.943661            0.068595             128                  
 16            13.38622            14.112118            0.074682             128                  
 16            13.39652            14.696488            0.081135             128                  
 16            13.40683            13.977790            0.082720             128                  
 16            13.41715            13.357125            0.086425             128                  
 16            13.42747            12.588456            0.100158             128                  
 16            13.43780            11.248515            0.089220             128                  
 16            13.44814            10.051723            0.079465             128                  
 16            13.45849            9.941570             0.078905             128                  
 16            13.46885            9.727809             0.079643             128                  
 16            13.47921            10.730217            0.097256             128                  
 16            13.48959            11.363894            0.107261             128                  
 16            13.49997            11.555333            0.112758             128                  
 16            13.51036            11.286354            0.132253             128                  
 16            13.52075            9.942490             0.121090             128                  
 16            13.53116            4.972679             0.103378             128                  
 15            13.13125            7.415485             0.020631             128                  
 15            13.14136            12.834457            0.025586             0                    
 15            13.15147            12.895272            0.025760             0                    
 15            13.16159            12.982002            0.025635             0                    
 15            13.17172            13.127428            0.025560             0                    
 15            13.18185            13.358387            0.026301             0                    
 15            13.19200            13.405145            0.028014             0                    
 15            13.20215            13.329443            0.029741             0                    
 15            13.21231            13.325676            0.030286             0                    
 15            13.22247            13.246169            0.030055             0                    
 15            13.23265            13.306791            0.030209             0                    
 15            13.24283            13.341248            0.030986             0                    
 15            13.25302            13.322664            0.030552             0                    
 15            13.26322            13.419643            0.027827             0                    
 15            13.27343            13.502205            0.026073             0                    
 15            13.28364            13.670430            0.024863             0                    
 15            13.29386            13.699699            0.024349             0                    
 15            13.30409            13.721333            0.023339             0                    
 15            13.31433            13.803389            0.022359             0                    
 15            13.32458            13.881608            0.021188             0                    
 15            13.33483            13.874889            0.020843             0                    
 15            13.34509            13.888139            0.021103             0                    
 15            13.35536            14.022310            0.021242             0                    
 15            13.36564            14.136967            0.021140             0                    
 15            13.37593            14.108785            0.020712             0                    
 15            13.38622            14.144680            0.021152             0                    
 15            13.39652            14.262203            0.022409             0                    
 15            13.40683            14.301955            NaN                  12288                
 15            13.41715            14.346486            NaN                  12288                
 15            13.42747            14.513292            0.023813             0                    
 15            13.43780            14.602456            0.024738             0                    
 15            13.44814            14.508753            0.025496             0                    
 15            13.45849            14.632984            0.026982             0                    
 15            13.46885            14.763133            0.026952             0                    
 15            13.47921            14.799301            0.026747             0                    
 15            13.48959            14.903958            0.026880             0                    
 15            13.49997            14.998486            0.027774             0                    
 15            13.51036            14.986897            0.026899             0                    
 15            13.52075            15.299539            0.026372             0                    
 15            13.53116            15.426008            0.025437             0                    
 15            13.54157            15.419908            0.025472             0                    
 15            13.55199            15.426396            0.025333             0                    
 15            13.56242            15.471202            0.024504             0                    
 15            13.57286            15.509328            0.023669             0                    
 15            13.58330            15.501947            0.023170             0                    
 15            13.59375            15.543290            0.022783             0                    
 15            13.60421            15.601044            0.022947             0                    
 15            13.61468            15.549018            0.022426             0                    
 15            13.62516            15.569304            0.021620             0                    
 15            13.63564            15.717645            0.021717             0                    
 15            13.64614            15.773759            0.022008             0                    
 15            13.65664            15.950610            0.022529             0                    
 15            13.66715            15.913896            NaN                  12288                
 15            13.67766            15.882550            NaN                  12288                
 15            13.68819            16.008858            0.021498             0                    
 15            13.69872            16.029699            0.021840             0                    
 15            13.70926            16.058744            0.022451             0                    
 15            13.71981            16.090384            0.022332             0                    
 15            13.73037            16.124744            0.022137             0                    
 15            13.74094            16.127354            0.022149             0                    
 15            13.75151            16.082623            0.022370             0                    
 15            13.76209            16.139698            0.023163             0                    
 15            13.77268            16.423237            0.024013             0                    
 15            13.78328            16.281347            0.022803             0                    
 15            13.79389            16.182667            0.022831             0                    
 15            13.80450            16.273264            0.023622             0                    
 15            13.81513            16.470320            0.024532             0                    
 15            13.82576            16.629293            0.024728             0                    
 15            13.83640            16.755856            0.024639             0                    
 15            13.84705            16.784952            0.024664             0                    
 15            13.85770            16.660292            NaN                  12288                
 15            13.86836            16.778109            NaN                  12288                
 15            13.87904            16.944883            0.026414             0                    
 15            13.88972            17.112125            0.027361             0                    
 15            13.90041            17.094013            0.027825             0                    
 15            13.91110            17.097212            0.028078             0                    
 15            13.92181            17.318613            0.028759             0                    
 15            13.93252            17.518091            0.029310             0                    
 15            13.94324            17.608664            0.029735             0                    
 15            13.95397            17.636055            0.030650             0                    
 15            13.96471            17.715902            0.031251             0                    
 15            13.97546            17.769318            0.032168             0                    
 15            13.98621            17.742525            0.032453             0                    
 15            13.99697            17.834494            0.032250             0                    
 15            14.00774            17.885292            0.034107             0                    
 15            14.01852            18.013958            0.035782             0                    
 15            14.02931            18.211567            0.037775             0                    
 15            14.04011            18.171268            0.037346             0                    
 15            14.05091            18.325172            0.039179             0                    
 15            14.06172            18.557772            0.040458             0                    
 15            14.07254            18.375359            NaN                  12288                
 15            14.08337            18.305286            NaN                  12288                
 15            14.09421            18.507364            0.046019             0                    
 15            14.10506            18.786594            0.048510             0                    
 15            14.11591            18.647078            0.048837             0                    
 15            14.12677            18.583902            0.052246             0                    
 15            14.13764            18.751890            0.055569             0                    
 15            14.14852            18.859289            0.056139             0                    
 15            14.15941            18.785618            0.056330             0                    
 15            14.17031            19.139105            0.056752             0                    
 15            14.18121            19.704988            0.064854             0                    
 15            14.19213            18.693708            0.059990             0                    
 15            14.20305            19.061937            0.060145             0                    
 15            14.21398            19.805595            0.064799             0                    
 15            14.22491            20.100475            0.061165             0                    
 15            14.23586            20.047443            0.063561             0                    
 15            14.24682            19.903210            0.065823             0                    
 15            14.25778            19.072567            0.063341             0                    
 15            14.26875            18.858898            0.060426             0                    
 15            14.27973            19.173510            0.061406             0                    
 15            14.29072            19.073023            0.065428             0                    
 15            14.30172            18.960848            0.068899             0                    
 15            14.31272            18.415241            0.069301             0                    
 15            14.32374            17.691605            0.065714             0                    
 15            14.33476            18.033140            0.071292             0                    
 15            14.34579            17.998550            0.076224             0                    
 15            14.35683            17.747766            0.085491             128                  
 15            14.36788            18.539595            0.111813             128                  
 15            14.37893            18.155779            0.103224             128                  
 15            14.39000            16.252634            0.101511             128                  
 15            14.40107            16.720491            0.137672             128                  
 15            14.41215            13.617858            0.098796             128                  
 15            14.42324            0.519659             0.005401             128                  
 14            14.05091            9.418131             0.023109             128                  
 14            14.06172            16.284222            0.027282             0                    
 14            14.07254            16.381281            0.026603             0                    
 14            14.08337            16.506636            0.027202             0                    
 14            14.09421            16.595982            0.028622             0                    
 14            14.10506            16.822084            0.030459             0                    
 14            14.11591            16.973141            NaN                  12288                
 14            14.12677            16.978729            NaN                  12288                
 14            14.13764            17.260990            0.033114             0                    
 14            14.14852            17.434242            0.035183             0                    
 14            14.15941            17.613153            0.037171             0                    
 14            14.17031            17.680552            0.035662             0                    
 14            14.18121            18.268957            0.035341             0                    
 14            14.19213            18.184826            0.031785             0                    
 14            14.20305            18.140116            0.031278             0                    
 14            14.21398            18.359674            0.031012             0                    
 14            14.22491            18.509388            0.030310             0                    
 14            14.23586            18.384052            0.027628             0                    
 14            14.24682            18.321476            0.025538             0                    
 14            14.25778            18.317871            0.025662             0                    
 14            14.26875            18.331078            0.025811             0                    
 14            14.27973            18.470636            0.025707             0                    
 14            14.29072            18.530451            0.025311             0                    
 14            14.30172            18.513763            0.025011             0                    
 14            14.31272            18.402555            0.024710             0                    
 14            14.32374            18.511900            0.025517             0                    
 14            14.33476            18.823460            0.027055             0                    
 14            14.34579            18.936007            0.027263             0                    
 14            14.35683            19.215256            0.026831             0                    
 14            14.36788            19.631832            0.027676             0                    
 14            14.37893            19.355497            0.028236             0                    
 14            14.39000            19.196024            0.030551             0                    
 14            14.40107            19.260897            0.031530             0                    
 14            14.41215            19.042648            0.030013             0                    
 14            14.42324            19.338839            0.030149             0                    
 14            14.43434            19.584673            0.030682             0                    
 14            14.44545            19.617147            0.032652             0                    
 14            14.45657            19.567423            0.031506             0                    
 14            14.46769            19.791922            0.030728             0                    
 14            14.47883            20.059666            NaN                  12288                
 14            14.48997            20.091013            NaN                  12288                
 14            14.50112            19.993656            NaN                  12288                
 14            14.51228            20.313051            NaN                  12288                
 14            14.52344            20.384319            0.028876             0                    
 14            14.53462            20.469807            0.027538             0                    
 14            14.54580            20.500481            0.027249             0                    
 14            14.55700            20.410904            NaN                  12288                
 14            14.56820            20.769083            NaN                  12288                
 14            14.57941            20.838867            0.027389             0                    
 14            14.59063            20.929092            NaN                  12288                
 14            14.60186            21.209303            NaN                  12288                
 14            14.61309            21.139154            0.026310             0                    
 14            14.62434            21.243420            NaN                  12288                
 14            14.63559            21.240698            NaN                  12288                
 14            14.64686            21.488989            0.026131             0                    
 14            14.65813            21.714914            0.026164             0                    
 14            14.66941            21.791327            0.027078             0                    
 14            14.68070            21.717863            0.027308             0                    
 14            14.69199            21.966713            0.027466             0                    
 14            14.70330            22.264685            0.027852             0                    
 14            14.71461            22.334789            0.027981             0                    
 14            14.72594            22.380096            0.027646             0                    
 14            14.73727            22.595747            0.028668             0                    
 14            14.74861            22.692366            0.029091             0                    
 14            14.75996            22.854050            0.028939             0                    
 14            14.77132            22.978168            0.028642             0                    
 14            14.78268            23.175749            0.028856             0                    
 14            14.79406            23.372595            0.029971             0                    
 14            14.80544            23.355156            0.030338             0                    
 14            14.81684            23.462870            0.030865             0                    
 14            14.82824            23.711323            0.030727             0                    
 14            14.83965            23.721663            0.030351             0                    
 14            14.85107            23.977224            0.032005             0                    
 14            14.86250            24.094995            0.033728             0                    
 14            14.87393            24.049839            0.033792             0                    
 14            14.88538            24.192320            0.033390             0                    
 14            14.89684            24.347891            0.033029             0                    
 14            14.90830            24.288811            0.033692             0                    
 14            14.91977            24.528442            0.034932             0                    
 14            14.93125            24.938877            0.037557             0                    
 14            14.94274            25.025526            0.038027             0                    
 14            14.95424            25.293375            0.038313             0                    
 14            14.96575            25.598373            0.038836             0                    
 14            14.97727            25.654848            0.040920             0                    
 14            14.98879            25.815559            0.042733             0                    
 14            15.00032            26.114618            0.043569             128                  
 14            15.01187            26.326071            0.043556             128                  
 14            15.02342            26.316082            0.045028             128                  
 14            15.03498            25.973232            0.045576             128                  
 14            15.04655            26.340279            0.049818             128                  
 14            15.05813            26.199558            0.051662             128                  
 14            15.06972            26.120697            0.050163             128                  
 14            15.08131            26.256660            0.052135             128                  
 14            15.09292            26.308397            0.053404             128                  
 14            15.10453            26.827652            0.057579             128                  
 14            15.11616            26.690014            0.060035             128                  
 14            15.12779            26.771244            0.058436             128                  
 14            15.13943            27.343693            0.059932             128                  
 14            15.15108            26.793646            0.058533             128                  
 14            15.16274            27.286171            0.061652             128                  
 14            15.17441            27.857727            0.064712             128                  
 14            15.18609            27.950773            0.063749             128                  
 14            15.19777            27.269693            0.060464             128                  
 14            15.20947            27.946573            0.061857             128                  
 14            15.22117            27.727629            0.058243             128                  
 14            15.23288            27.164181            0.059763             128                  
 14            15.24461            27.203836            0.060223             128                  
 14            15.25634            27.669107            0.060236             128                  
 14            15.26808            27.296141            0.057714             128                  
 14            15.27983            27.472984            0.059391             128                  
 14            15.29158            27.319511            0.063830             128                  
 14            15.30335            26.468750            0.062959             128                  
 14            15.31513            26.486670            0.078282             128                  
 14            15.32691            26.357347            0.090772             128                  
 14            15.33871            26.706692            NaN                  12416                
 14            15.35051            27.186476            NaN                  12416                
 14            15.36232            27.088387            0.093713             128                  
 14            15.37415            27.589630            0.093365             128                  
 14            15.38598            28.504004            0.098582             128                  
 14            15.39782            30.205967            0.112614             128                  
 14            15.40967            33.332962            0.132140             128                  
 14            15.42152            28.954617            0.119672             128                  
 14            15.43339            0.350667             0.003324             128                  
 13            15.10453            7.313509             0.016086             128                  
 13            15.11616            24.929525            0.041091             0                    
 13            15.12779            25.245871            0.043574             0                    
 13            15.13943            25.018059            0.046122             0                    
 13            15.15108            25.320057            0.046487             0                    
 13            15.16274            25.449257            0.046245             0                    
 13            15.17441            25.702168            0.044637             0                    
 13            15.18609            26.006348            0.045033             0                    
 13            15.19777            26.204531            0.045515             0                    
 13            15.20947            26.236629            0.041985             0                    
 13            15.22117            26.577782            0.039087             0                    
 13            15.23288            26.507334            0.035388             0                    
 13            15.24461            26.838005            0.034686             0                    
 13            15.25634            27.334429            0.035366             0                    
 13            15.26808            27.326975            0.035267             0                    
 13            15.27983            27.570015            NaN                  12288                
 13            15.29158            27.962402            NaN                  12288                
 13            15.30335            27.840977            0.032374             0                    
 13            15.31513            27.966911            0.033807             0                    
 13            15.32691            28.053938            0.036263             0                    
 13            15.33871            28.285196            0.037310             0                    
 13            15.35051            28.716436            0.038871             0                    
 13            15.36232            29.076401            0.038600             0                    
 13            15.37415            29.307638            0.040831             0                    
 13            15.38598            30.019728            0.043226             0                    
 13            15.39782            30.984943            0.046613             0                    
 13            15.40967            31.487370            0.049334             0                    
 13            15.42152            30.608242            0.045416             0                    
 13            15.43339            30.151804            0.043739             0                    
 13            15.44527            30.744974            0.044623             0                    
 13            15.45715            31.059513            0.045376             0                    
 13            15.46905            31.815578            0.048018             0                    
 13            15.48095            31.884638            0.044010             0                    
 13            15.49286            32.454048            0.041916             0                    
 13            15.50479            33.456127            0.040545             0                    
 13            15.51672            35.644611            0.041561             0                    
 13            15.52866            45.179775            0.048381             0                    
 13            15.54061            112.318298           0.073789             0                    
 13            15.55257            252.026825           0.159994             0                    
 13            15.56454            194.359009           0.104912             0                    
 13            15.57651            72.546227            0.046842             0                    
 13            15.58850            36.296928            0.036358             0                    
 13            15.60049            34.419933            0.036036             0                    
 13            15.61250            34.515572            0.034982             0                    
 13            15.62451            34.914761            0.034013             0                    
 13            15.63654            34.913563            0.032492             0                    
 13            15.64857            34.971031            0.032946             0                    
 13            15.66061            35.077629            0.034059             0                    
 13            15.67266            35.256359            0.034369             0                    
 13            15.68472            35.767113            0.034390             0                    
 13            15.69679            36.379826            0.033584             0                    
 13            15.70887            37.457420            0.033841             0                    
 13            15.72096            37.962234            0.035469             0                    
 13            15.73306            37.205708            0.036253             0                    
 13            15.74517            37.017151            0.036298             0                    
 13            15.75728            37.403507            0.036112             0                    
 13            15.76941            38.278191            0.036159             0                    
 13            15.78154            38.567074            0.037970             0                    
 13            15.79369            38.289291            0.038077             0                    
 13            15.80584            38.666195            0.039661             0                    
 13            15.81800            39.174934            0.041007             0                    
 13            15.83018            39.307076            0.039542             0                    
 13            15.84236            39.636482            0.039863             0                    
 13            15.85455            39.867718            0.040227             0                    
 13            15.86675            40.245872            0.041933             0                    
 13            15.87896            40.351002            0.043334             0                    
 13            15.89118            41.286137            0.044490             0                    
 13            15.90341            41.660408            0.045375             0                    
 13            15.91565            41.351376            0.044055             0                    
 13            15.92789            42.315510            0.045339             0                    
 13            15.94015            42.230846            0.048328             0                    
 13            15.95242            42.142296            0.047504             0                    
 13            15.96469            42.633511            0.047865             0                    
 13            15.97698            43.339180            0.047616             0                    
 13            15.98927            43.833084            0.048269             0                    
 13            16.00158            43.766556            0.047896             128                  
 13            16.01389            44.608620            0.050002             0                    
 13            16.02621            45.110031            0.050866             0                    
 13            16.03855            44.710949            0.049627             128                  
 13            16.05089            44.832226            0.047785             128                  
 13            16.06324            45.705578            0.050058             128                  
 13            16.07560            44.772671            0.050380             128                  
 13            16.08797            45.282063            0.051270             128                  
 13            16.10035            46.121353            NaN                  12288                
 13            16.11274            46.453239            NaN                  12416                
 13            16.12514            46.652344            0.055886             128                  
 13            16.13755            47.108452            0.056048             0                    
 13            16.14997            46.821056            0.056420             0                    
 13            16.16240            47.643028            0.065475             128                  
 13            16.17483            48.567917            0.063581             128                  
 13            16.18728            47.310234            0.056299             0                    
 13            16.19974            48.298916            0.061429             0                    
 13            16.21220            48.980709            0.063399             128                  
 13            16.22468            49.915688            0.072404             128                  
 13            16.23716            48.329166            0.067694             128                  
 13            16.24966            48.816189            0.071657             128                  
 13            16.26216            48.267208            0.070602             128                  
 13            16.27468            49.771709            0.077875             128                  
 13            16.28720            48.883755            0.079427             128                  
 13            16.29973            51.289894            0.094766             128                  
 13            16.31228            51.154949            0.093180             0                    
 13            16.32483            51.891735            0.096506             0                    
 13            16.33739            53.164425            0.100784             0                    
 13            16.34996            54.197803            0.099195             0                    
 13            16.36255            51.882809            0.093618             0                    
 13            16.37514            55.625599            0.109265             0                    
 13            16.38774            56.147728            0.105324             0                    
 13            16.40035            56.090111            0.103604             0                    
 13            16.41297            53.456829            0.093397             0                    
 13            16.42560            55.339455            0.094690             0                    
 13            16.43824            56.053150            0.097833             0                    
 13            16.45089            55.524239            NaN                  12288                
 13            16.46355            56.193504            NaN                  12288                
 13            16.47622            54.584831            0.092463             0                    
 13            16.48890            55.657589            0.096349             0                    
 13            16.50159            56.315891            0.100468             128                  
 13            16.51428            56.828091            0.104984             128                  
 13            16.52699            54.516300            0.102324             128                  
 13            16.53971            55.050423            0.112943             128                  
 13            16.55244            55.256546            0.117444             128                  
 13            16.56518            54.790085            0.128992             128                  
 13            16.57792            52.888569            0.122997             128                  
 13            16.59068            6.970143             0.020641             128                  
 12            16.33739            38.378502            0.068428             128                  
 12            16.34996            48.647091            0.064336             0                    
 12            16.36255            49.427376            0.061217             0                    
 12            16.37514            49.469189            0.057378             0                    
 12            16.38774            49.921673            0.055576             0                    
 12            16.40035            51.029705            0.056880             0                    
 12            16.41297            51.212673            0.057030             0                    
 12            16.42560            51.553711            0.056751             0                    
 12            16.43824            51.891785            0.057136             0                    
 12            16.45089            52.064419            0.056713             0                    
 12            16.46355            52.903984            0.059460             0                    
 12            16.47622            52.330013            0.062760             0                    
 12            16.48890            52.756802            NaN                  12288                
 12            16.50159            53.410961            NaN                  12288                
 12            16.51428            52.872997            NaN                  12288                
 12            16.52699            52.468227            0.064319             0                    
 12            16.53971            53.102043            0.064489             0                    
 12            16.55244            52.854156            0.065772             0                    
 12            16.56518            53.474529            0.066037             0                    
 12            16.57792            53.207233            0.061708             0                    
 12            16.59068            52.733406            0.056672             0                    
 12            16.60345            54.111759            0.056399             0                    
 12            16.61622            53.735729            0.053170             0                    
 12            16.62901            54.384224            0.053495             0                    
 12            16.64181            55.300224            0.054781             0                    
 12            16.65461            55.021782            0.052200             0                    
 12            16.66743            55.640095            0.049927             0                    
 12            16.68026            56.139919            0.048874             0                    
 12            16.69309            56.345882            0.048424             0                    
 12            16.70594            56.884907            0.050410             0                    
 12            16.71879            56.853897            0.051732             0                    
 12            16.73166            57.327179            0.052304             0                    
 12            16.74453            57.473000            0.051474             0                    
 12            16.75742            58.178616            0.050231             0                    
 12            16.77031            58.739956            0.051085             0                    
 12            16.78322            58.307896            0.051777             0                    
 12            16.79613            58.454292            0.054075             0                    
 12            16.80906            59.635899            0.056208             0                    
 12            16.82199            60.178040            0.056857             0                    
 12            16.83494            60.292427            0.055285             0                    
 12            16.84789            59.404423            0.055018             0                    
 12            16.86086            59.680744            0.057531             0                    
 12            16.87383            61.657318            0.062235             0                    
 12            16.88682            61.780121            0.063470             0                    
 12            16.89981            60.920006            0.061300             0                    
 12            16.91282            61.199352            0.061883             0                    
 12            16.92583            62.519798            0.060716             0                    
 12            16.93886            62.450851            0.062810             0                    
 12            16.95189            62.299210            0.065672             0                    
 12            16.96494            62.719086            0.067229             0                    
 12            16.97799            63.696640            0.065752             0                    
 12            16.99106            64.963135            0.064674             0                    
 12            17.00413            64.116066            0.062792             0                    
 12            17.01722            64.658714            0.064411             0                    
 12            17.03031            66.078598            0.067606             0                    
 12            17.04342            67.178528            0.069302             0                    
 12            17.05653            66.416222            0.068098             0                    
 12            17.06966            67.055313            0.066667             0                    
 12            17.08280            68.507637            0.068433             0                    
 12            17.09594            67.164078            0.066007             0                    
 12            17.10910            68.600853            0.069368             0                    
 12            17.12226            68.215797            0.069210             0                    
 12            17.13544            68.985260            0.070038             0                    
 12            17.14863            68.476486            0.066067             0                    
 12            17.16182            67.739067            NaN                  12288                
 12            17.17503            68.791985            NaN                  12288                
 12            17.18824            69.722496            0.069471             0                    
 12            17.20147            70.280769            0.072909             0                    
 12            17.21471            70.309433            0.073323             0                    
 12            17.22796            69.783806            0.070318             0                    
 12            17.24121            72.012009            0.074179             0                    
 12            17.25448            71.607185            NaN                  12288                
 12            17.26776            71.199944            NaN                  12288                
 12            17.28105            70.655998            0.074486             0                    
 12            17.29434            73.254997            0.081437             0                    
 12            17.30765            74.995003            0.088013             0                    
 12            17.32097            73.002289            0.077160             0                    
 12            17.33430            74.605629            0.080345             0                    
 12            17.34764            75.567192            0.083553             0                    
 12            17.36099            74.615997            0.083310             0                    
 12            17.37435            77.360214            0.089173             0                    
 12            17.38772            76.787994            0.087204             0                    
 12            17.40110            76.624725            0.088420             0                    
 12            17.41449            75.509575            0.085051             0                    
 12            17.42789            77.772743            0.086748             0                    
 12            17.44130            76.566734            0.086085             128                  
 12            17.45472            75.860352            0.088379             128                  
 12            17.46816            75.438492            0.085405             128                  
 12            17.48160            77.790344            0.090455             128                  
 12            17.49505            76.451859            0.082475             128                  
 12            17.50851            76.080338            0.081637             128                  
 12            17.52199            79.535896            0.089148             128                  
 12            17.53547            78.571381            NaN                  12416                
 12            17.54896            77.893517            NaN                  12416                
 12            17.56247            77.831192            0.082874             0                    
 12            17.57598            78.604004            0.083164             0                    
 12            17.58951            78.957817            0.082166             0                    
 12            17.60304            78.271973            0.080776             0                    
 12            17.61659            77.178001            0.540912             128                  
 12            17.63015            79.127090            0.316972             128                  
 12            17.64371            79.227661            0.094232             128                  
 12            17.65729            78.071724            0.090316             128                  
 12            17.67088            82.102226            0.119253             128                  
 12            17.68448            84.704338            0.106292             128                  
 12            17.69809            83.334244            0.108099             0                    
 12            17.71170            81.051781            0.104407             0                    
 12            17.72533            81.828667            0.111315             0                    
 12            17.73897            81.728935            0.118364             0                    
 12            17.75263            83.066154            0.133813             0                    
 12            17.76629            82.465790            0.124089             0                    
 12            17.77996            88.142715            0.147332             0                    
 12            17.79364            83.478630            0.133765             0                    
 12            17.80733            82.571175            0.132020             0                    
 12            17.82104            85.359428            0.141378             128                  
 12            17.83475            83.722473            0.134552             128                  
 12            17.84847            81.220352            0.127165             128                  
 12            17.86221            82.365196            0.126232             128                  
 12            17.87595            85.017075            0.126851             128                  
 12            17.88971            88.129143            0.132549             128                  
 12            17.90348            86.233925            0.141354             128                  
 12            17.91725            83.090706            0.126392             128                  
 12            17.93104            42.306850            0.084703             128                  
 11            17.76629            0.666498             0.002615             128                  
 11            17.77996            66.074600            0.089395             128                  
 11            17.79364            77.564590            0.089814             0                    
 11            17.80733            77.516510            0.086236             0                    
 11            17.82104            77.832298            0.084568             0                    
 11            17.83475            79.493614            0.082173             0                    
 11            17.84847            81.377220            0.082516             0                    
 11            17.86221            80.550041            0.075298             0                    
 11            17.87595            82.817619            0.075505             0                    
 11            17.88971            83.355904            0.076968             0                    
 11            17.90348            82.375008            0.079975             0                    
 11            17.91725            81.897125            0.080807             0                    
 11            17.93104            81.619217            0.081013             0                    
 11            17.94484            82.110748            0.083050             0                    
 11            17.95865            82.075485            0.085318             0                    
 11            17.97247            83.705933            0.086476             0                    
 11            17.98630            83.393745            0.087993             0                    
 11            18.00014            83.217026            0.090632             0                    
 11            18.01399            84.555565            0.096051             0                    
 11            18.02785            84.817352            0.092077             0                    
 11            18.04173            85.594513            0.089857             0                    
 11            18.05561            85.288452            0.086689             0                    
 11            18.06951            85.285339            0.087588             0                    
 11            18.08341            84.802727            0.086230             0                    
 11            18.09733            86.078484            0.087237             0                    
 11            18.11125            89.276215            0.086939             0                    
 11            18.12519            88.527321            0.080965             0                    
 11            18.13914            87.754486            0.075462             0                    
 11            18.15310            87.243149            0.071672             0                    
 11            18.16706            89.280800            0.075353             0                    
 11            18.18104            89.711563            0.076634             0                    
 11            18.19504            90.061249            0.075241             0                    
 11            18.20904            89.082977            0.073546             0                    
 11            18.22305            87.713715            0.068883             0                    
 11            18.23707            90.035011            0.067670             0                    
 11            18.25111            90.599762            0.067418             0                    
 11            18.26515            90.777870            0.070427             0                    
 11            18.27921            91.846642            0.074376             0                    
 11            18.29327            92.493896            0.075689             0                    
 11            18.30735            91.656067            0.074826             0                    
 11            18.32144            92.109573            0.073696             0                    
 11            18.33554            92.988792            0.075643             0                    
 11            18.34965            94.308098            0.078861             0                    
 11            18.36377            94.010880            0.080271             0                    
 11            18.37790            95.694099            0.088037             0                    
 11            18.39204            93.752686            0.086765             0                    
 11            18.40619            94.337067            0.085352             0                    
 11            18.42036            94.821922            0.084545             0                    
 11            18.43453            94.879944            0.082525             0                    
 11            18.44872            94.719803            0.082727             0                    
 11            18.46292            97.140366            0.091908             128                  
 11            18.47712            97.331108            0.091371             128                  
 11            18.49134            100.129265           0.092517             0                    
 11            18.50557            97.349419            NaN                  12288                
 11            18.51981            95.832977            NaN                  12288                
 11            18.53406            98.378944            0.086107             0                    
 11            18.54833            98.635559            0.087772             0                    
 11            18.56260            96.225174            0.089712             0                    
 11            18.57688            100.604820           NaN                  12288                
 11            18.59118            101.882889           NaN                  12288                
 11            18.60549            100.223801           0.094033             0                    
 11            18.61980            103.170998           0.096912             0                    
 11            18.63413            102.676033           0.092922             0                    
 11            18.64847            105.389641           0.098728             0                    
 11            18.66282            109.377800           0.103564             0                    
 11            18.67718            129.652283           0.113665             0                    
 11            18.69156            217.692200           0.143427             0                    
 11            18.70594            546.026306           NaN                  12288                
 11            18.72033            571.256775           NaN                  12288                
 11            18.73474            254.994766           0.164643             0                    
 11            18.74916            119.487076           0.108473             128                  
 11            18.76359            112.027390           0.109883             128                  
 11            18.77802            106.951843           0.105788             0                    
 11            18.79247            103.334709           0.100350             0                    
 11            18.80694            105.207375           0.096114             0                    
 11            18.82141            107.382401           0.099444             0                    
 11            18.83589            108.562454           0.102342             0                    
 11            18.85039            104.662148           0.097864             0                    
 11            18.86489            106.704872           0.105296             0                    
 11            18.87941            107.115944           0.108920             0                    
 11            18.89394            108.531929           0.105908             128                  
 11            18.90848            107.725464           0.102255             128                  
 11            18.92303            107.039230           0.099709             0                    
 11            18.93759            112.969063           0.105984             0                    
 11            18.95216            111.120239           0.106025             0                    
 11            18.96675            107.860573           0.104667             0                    
 11            18.98134            112.246597           0.107916             0                    
 11            18.99595            115.488495           0.113128             0                    
 11            19.01057            107.905182           0.098992             0                    
 11            19.02520            108.872185           0.096962             0                    
 11            19.03984            110.370964           0.097240             128                  
 11            19.05449            114.355362           0.105686             128                  
 11            19.06915            119.034340           NaN                  12416                
 11            19.08382            111.634407           NaN                  12416                
 11            19.09851            109.308876           0.109184             0                    
 11            19.11321            113.464302           0.148039             128                  
 11            19.12792            113.336121           0.114162             128                  
 11            19.14263            110.304344           0.112038             128                  
 11            19.15737            111.576004           0.125152             128                  
 11            19.17211            112.210327           0.131734             128                  
 11            19.18686            110.841682           0.141007             128                  
 11            19.20163            112.961739           0.140709             128                  
 11            19.21640            112.884132           0.135905             128                  
 11            19.23119            107.150986           0.128366             0                    
 11            19.24599            114.896149           0.152382             0                    
 11            19.26080            117.905624           0.162249             0                    
 11            19.27562            112.914261           0.147407             0                    
 11            19.29045            124.861588           0.188012             0                    
 11            19.30530            113.145645           0.154014             0                    
 11            19.32015            117.169090           0.158406             0                    
 11            19.33502            114.728600           0.155936             128                  
 11            19.34990            117.240677           0.154832             128                  
 11            19.36479            115.238533           0.153878             128                  
 11            19.37969            114.458069           0.155311             128                  
 11            19.39461            108.446480           0.136620             128                  
 11            19.40953            112.211731           0.138235             128                  
 11            19.42447            113.094856           0.137894             128                  
 11            19.43941            109.734398           0.137737             128                  
 11            19.45437            107.770927           0.128154             128                  
 11            19.46934            116.540970           0.156992             128                  
 11            19.48433            110.820450           2.929044             128                  
 11            19.49932            107.408920           0.479367             128                  
 11            19.51432            30.253429            0.062265             128                  
