\wavsamp version 5.1 (Wed Apr 20 08:45:04 PDT 2005)
\processing time 13:47:36 PST 11/02/2007
\character channelID = 1
\char HISTORY ========== Parameters supplied to RIDGE program below ==========
\char HISTORY PROCESS 2010/09/25 15:14:52
\char HISTORY ridge v1.15  (nl_and_params v1.9)
\char HISTORY WAVSAMP_FILE = ./cal/wavsamp.tbl
\char HISTORY PROFILE_FILE = profile.tbl
\char HISTORY PCT_LO = 25.0, percent
\char HISTORY PCT_HI = 75.0, percent
\char HISTORY NAMELIST_FILE = ./cdf/ridge.nl
\char HISTORY ========== RIDGE processing results summary below ==========
\char HISTORY FIND PEAKS: YES
\char HISTORY OVERALL Max DN=523.8 at PCT=74.38, found in region 0
\char HISTORY MEDIAN FILTER not used.
\char HISTORY PERCENTAGE = 74.38  (cut was performed here)
\char HISTORY MAX_SIGNAL = 523.8  (maximum signal value in DN)
\char HISTORY CUT_POS = 74.38  (pct at which the max signal was found)
\char HISTORY MAX_SIGNAL_IN_REGION = 0  (region where max signal was found)
\COMMENT ========== Keywords from PROFILE table file below ==========
\char NAXIS   =                    2 / STANDARD FITS FORMAT
\char NAXIS1  =                  128
\char NAXIS2  =                  128
\char ORIGIN  = 'Spitzer Science Center' / Organization generating this FITS file
\char CREATOR = 'S18.18.0'           / SW version used to create this FITS file
\char TELESCOP= 'Spitzer '
\char INSTRUME= 'IRSX    '
\char CAL_SET = 'C18.18PRE25.A'      / ID for the set of CAL files used
\char CHNLNUM =                    1 / 0=SL, 1=SH, 2=LL, 3=LH
\char FILENAME= 'IRSX.1.0005020416.0000.0000.01.mipl.fits' / File name
\char FILETYPE= 'fits-irs2d-flux'
\char EXPTYPE = 'sp      '           / Exposure Type
\char REQTYPE = 'AOR     '           / Request type (AOR,IER, or SER)
\char AOT_TYPE= 'IrsStare'           / Observation Template Type
\char AORLABEL= 'IRSS-PAH_64A'       / AOR Label
\char FOVNAME = 'IRS_Short-Hi_1st_Position' / Field of View Name
\char READMODE= 'RAW     '           / Readout Mode
\char 
\char           / PROPOSAL INFORMATION
\char 
\char OBSRVR  = 'Dale Cruikshank'    / Observer Name
\char OBSRVRID=                   52 / Observer ID of Principal Investigator
\char PROCYCL =                    1 / Proposal Cycle
\char PROGID  =                  120 / Program ID
\char PROTITLE= 'Study of new 16.4 micron PAH feature' / Program Title
\char PROGCAT =                   29 / Program Category
\char 
\char           / TIME AND EXPOSURE INFORMATION
\char 
\char DATE_OBS= '2004-10-26T09:54:52.510' / Date & time (UTC) at DCE start
\char MJD_OBS =       53304.42093802 / Program calkeywords trimmed-average result
\char UTCS_OBS=       152057169.0456 / Program calkeywords trimmed-average result
\char SCLK_OBS=       783252499.3839 / Program calkeywords trimmed-average result
\char SAMPTIME=               4.0632 / [sec] Sample integration time
\char REQMODE =                    5 / ID for mode or type of request
\char EXPSTRTC=            783251794 / Exposure Start Timestamp Coarse
\char EXPSTRTF=                25043 / Exposure Start Timestamp Fine
\char GRPARVTC=            783251883 / [sec] Coarse Spacecraft Group Time
\char GRPARVTF=                    0 / [sec] Fine Spacecraft Group Time
\char AIRSCMDN=                   10 / Commanded number of DCEs for IRS
\char AIRS_DET=                    1 / Selected IRS detector for exposure command
\char AIRSEXPM=                    1 / Current Mode of the IRS Exp Manager
\char GRPTIME =               8.1264 / [sec] Group (w/ spin) integration time
\char DEADTIME=              24.3792 / [sec] Reset + boost(s) time
\char RAMPTIME=                121.9 / [sec] Ramp (total DCE) integration time
\char EXPTOT_T=              1218.96 / [sec] Integr. time for all DCEs in exposure
\char AIRSERCT=                    0 / Number of IRS exposure errors
\char 
\char           / TARGET AND POINTING INFORMATION
\char 
\char OBJECT  = 'Orion Bar -8+8'     / Target Name
\char OBJTYPE = 'TargetFixedSingle'  / Target Type
\char RA_HMS  = '05h35m19.5s'        / [hh:mm:ss.s] RA_SLT or CRVAL1 in sexagesimal
\char DEC_DMS = '-05d25m05s'         / [dd:mm:ss] DEC_SLT or CRVAL2 in sexagesimal
\char RA_RQST =     83.8308333333333 / [deg] Commanded RA referenced to commanded FOV
\char DEC_RQST=     -5.4172222222222 / [deg] Commanded Dec referenced to commanded FOV
\char PA_RQST =     106.229652802955 / [deg] Requested pos. angle of axis 2 (E of N)
\char PM_RA   =                   0. / [arcsec/yr] Proper Motion in RA (J2000)
\char PM_DEC  =                   0. / [arcsec/yr] Proper Motion in Dec (J2000)
\char CRDER1  = 0.000301840291757736 / Program calkeywords trimmed-average result
\char CRDER2  = 0.000301842835300463 / Program calkeywords trimmed-average result
\char SIGRA   =   0.0137498786050462 / [arcsec] RMS dispersion of RA over DCE
\char SIGDEC  =    0.075424356072159 / [arcsec] RMS dispersion of DEC over DCE
\char SIGPA   =    0.431370277697591 / [arcsec] RMS dispersion of PA over DCE
\char PTGDIFF =     1.23586408036102 / [arcsec] offset btwn actual and rqsted pntng
\char PTGDIFFX=    -1.22330569947529 / [arcsec] requested - actual pntg along axis 1
\char PTGDIFFY=    0.175735393039163 / [arcsec] requested - actual pntg along axis 2
\char RA_REF  =     83.8308333333333 / [deg] Commanded RA (J2000) of ref. position
\char DEC_REF =     -5.4172222222222 / [deg] Commanded Dec (J2000) of ref. position
\char USEDBPHF=                    T / T if Boresight Pointing History File was used.
\char RMS_JIT =   0.0295243644568919 / Program calkeywords trimmed-average result
\char RMS_JITY=   0.0176619120770247 / Program calkeywords trimmed-average result
\char RMS_JITZ=   0.0224159360889758 / Program calkeywords trimmed-average result
\char RA_FOV  =     83.8310571704768 / [deg] RA at FOVID averaged over DCE
\char DEC_FOV =    -5.41748336460898 / [deg] DEC at FOVID averaged over DCE
\char PA_FOV  =     147.700267289184 / [deg] PA at FOVID averaged over DCE
\char RA_SLT  =     83.8313311054279 / [deg] RA at slit center averaged over DCE
\char DEC_SLT =    -5.41791477516512 / [deg] DEC at slit center averaged over DCE
\char PA_SLT  =     147.700242126583 / [deg] PA at slit center averaged over DCE
\char CSDRADEC= 8.51281573341519E-06 / [deg] Costandard deviation in RA and Dec
\char CSD_JTYZ=   0.0222486386701026 / [arcsec] Costandard deviation of jitter in YZ
\char BPHFNAME= 'BPHF.0783216000.03.pntg' / Boresight Pointing History Filename
\char FOVVERSN= 'BodyFrames_FTU_22b.xls' / FOV/BodyFrames file version used
\char VHELCORR=                 21.1 / [km/sec] Correction to heliocentric velocity
\char VLSRCORR=                  3.1 / [km/sec] Correction to local standard of rest
\char SPTZR_X =     135744523.288985 / [km] Heliocentric x position
\char SPTZR_Y =      62459241.440498 / [km] Heliocentric y position
\char SPTZR_Z =      30185463.535771 / [km] Heliocentric z position
\char SPTZR_VX=           -13.614317 / [km/sec] Heliocentric x velocity
\char SPTZR_VY=             23.84194 / [km/sec] Heliocentric y velocity
\char SPTZR_VZ=             10.54262 / [km/sec] Heliocentric z velocity
\char ET_OBS  =        152056556.692 / [sec] DCE start time (TDB seconds past J2000)
\char HMJD_OBS=        53304.4159451 / Corresponding Heliocen. Mod. Julian Date
\char 
\char 
\char           / PHOTOMETRY (IRS IMAGING)
\char 
\char BUNIT   = 'e-/sec  '           / Units of image data
\char 
\char           / SPECTROPHOTOMETRY IRS SH, LH (CHNLNUM 1, 3)
\char 
\char FLXCON11=           105.259789 / [electrons/sec/Jy] Flux conversion Order 11
\char FLXERR11=                124.5 / Flux conversion uncertainties Order 11
\char FLXCON12=           116.286804 / [electrons/sec/Jy] Flux conversion Order 12
\char FLXERR12=                124.5 / Flux conversion uncertainties Order 12
\char FLXCON13=           126.412613 / [electrons/sec/Jy] Flux conversion Order 13
\char FLXERR13=                124.5 / Flux conversion uncertainties Order 13
\char FLXCON14=            136.83342 / [electrons/sec/Jy] Flux conversion Order 14
\char FLXERR14=                124.5 / Flux conversion uncertainties Order 14
\char FLXCON15=           148.767761 / [electrons/sec/Jy] Flux conversion Order 15
\char FLXERR15=                124.5 / Flux conversion uncertainties Order 15
\char FLXCON16=           161.639481 / [electrons/sec/Jy] Flux conversion Order 16
\char FLXERR16=                124.5 / Flux conversion uncertainties Order 16
\char FLXCON17=           175.408447 / [electrons/sec/Jy] Flux conversion Order 17
\char FLXERR17=                124.5 / Flux conversion uncertainties Order 17
\char FLXCON18=           182.315125 / [electrons/sec/Jy] Flux conversion Order 18
\char FLXERR18=                124.5 / Flux conversion uncertainties Order 18
\char FLXCON19=           212.186325 / [electrons/sec/Jy] Flux conversion Order 19
\char FLXERR19=                124.5 / Flux conversion uncertainties Order 19
\char FLXCON20=           246.369156 / [electrons/sec/Jy] Flux conversion Order 20
\char FLXERR20=                124.5 / Flux conversion uncertainties Order 20
\char 
\char           / GENERAL MAPPING KEYWORDS
\char 
\char DBEXPOID=              1926905 / Current Exposure ID
\char 
\char           / IRS PEAKUP KEYWORDS
\char 
\char PKUPMODE= 'PCRS    '           / Peakup mode (none, IRS, or PCRS)
\char PKUPFLUX=                  9.4 / Flux density of peakup target for IRS [mJy] or
\char ISPUPOS =                    T / PU target given in absolute positions (T) or re
\char PKUPRA  =       83.89283333333 / [deg] RA peakup position
\char PKUPDEC =       -5.10588888889 / [deg] Dec peakup position
\char PM_PKRA =                   0. / [''/yr]Proper motion for RA peakup position
\char PM_PKDEC=                   0. / [''/yr]Proper motion for Dec peakup position
\char HP_CENQ =                    0 / Peakup centroid quality code
\char APKUPCEN=                    1 / Status of the peakup centroid
\char AXCNTRD1=                10789 / [centipixels] X value of the brightest centroid
\char AYCNTRD1=                 2795 / [centipixels] Y value of the brightest centroid
\char AXCNTRD2=                    0 / [centipixels] X value of the second brightest c
\char AYCNTRD2=                    0 / [centipixels] Y value of the second brightest c
\char AINTENS1=               143248 / [counts] Intensity value of the brightest centr
\char AINTENS2=                    0 / [counts] Intensity value of the second brightes
\char APKUPXCE=                10789 / [centipixels] X value of the centroid to be ret
\char APKUPYCE=                 2795 / [centipixels] Y value of the centroid to be ret
\char 
\char 
\char           / DATA FLOW KEYWORDS
\char 
\char DATE    = '2010-09-25T22:07:50' / file creation date (YYYY-MM-DDThh:mm:ss UT)
\char AORKEY  = '5020416 '           / AOR or EIR key. Astrnmy Obs Req/Instr Eng Req
\char EXPID   =                    0 / Exposure ID (0-9999)
\char DCENUM  =                    0 / DCE number (0-9999)
\char TLMGRPS =                   16 / Number of expected telemetry groups
\char FILE_VER=                    1 / Version of the raw file made by SIS
\char RAWNAME = 'IRSX.1.0005020416.0000.0000.01.mipl.fits' / Raw data file name
\char SIS_SVER= 'J5.3    '           / SIS SW VERsion
\char CPT_VER = '3.0.98  '           / Channel Param Table FOS version
\char CTD_VER = '3.0.94S '           / Cmded telemetry data version
\char EXPDFLAG=                    F / (T/F) expedited DCE
\char MISS_LCT=                    0 / Total Missed Line Cnt in this FITS
\char MANCPKT =                    F / T if this FITS is Missing Ancillary Data
\char MISSDATA=                    F / T if this FITS is Missing Image Data
\char PAONUM  =                  864 / PAO Number
\char CAMPAIGN= 'IRSX003900'         / Campaign
\char DCEID   =             21899815 / Data-Collection-Event ID
\char DCEINSID=              4650380 / DCE Instance ID
\char DPID    =            327195903 / Data Product Instance ID
\char PIPENUM =                  202 / Ensemble-information
\char SOS_VER =                   1. / Data-Product Version
\char PLVID   =                    9 / Pipeline Version ID
\char CALID   =                    3 / CalTrans Version ID
\char ORIGIN0 = 'JPL_FOS '           / site where RAW FITS files was written
\char CREATOR0= 'J5.3    '           / SW system that created RAW FITS
\char 
\char XTCHINSQ=                    0 / Number of rows with poor SH/LH optical crosstal
\char XTKUNCOR=                    0 / Number of rows with no SH/LH optical crosstalk
\char GAIN1   =                  4.6 / e/DN conversion (readout channel 1)
\char GAIN2   =                  4.6 / e/DN conversion (readout channel 2)
\char GAIN3   =                  4.6 / e/DN conversion (readout channel 3)
\char GAIN4   =                  4.6 / e/DN conversion (readout channel 4)
\char BASECH1 =             38376.86 / Trimmed mean channel 1 signal in reference unil
\char BASECH2 =             36037.16 / Trimmed mean channel 2 signal in reference unil
\char BASECH3 =             28480.26 / Trimmed mean channel 3 signal in reference unil
\char BASECH4 =             37540.54 / Trimmed mean channel 4 signal in reference unil
\char 
\char FBIDDARK=                  551
\char FBIDFLAT=                 1085
\char FBIDLNCR=                   23
\char FBIDLNMD=                  237
\char FBIDOMSK=                   48
\char FBIDPMSK=                  108
\char FBIDWSMP=                 1066
\char FBIDUMSK=                   67
\char FBIDWSOF=                 1067
\char FBIDWSOM=                 1068
\char FBIDWSWA=                 1065
\char FBIDFLXC=                 1202
\char FBIDFMSK=                   72
\char FBIDCALS=                 1212
\char FBIDLNSC=                  506
\char CKWPROC = 'calkeywords'        / PERFORM CALKEYWORDS OPERATIONS
\char CKWVERSN=                 3.40 / Version number of calkeywords program
\char ACTUALN =                   10 / Ensemble-information
\char EXPECTN =                   10 / Ensemble-information
\char ENSID   =               430682 / Ensemble-information
\char EPVERSN =                    7 / Ensemble-information
\char CALTYPE = 'coadd   '           / Ensemble-information
\char EPID    =              7287683 / SODB cal-table metadata-record index
\char CKWCENF1=                  0.9 / Central trim fraction for mean (=0 for median)
\char CKWCENF2=                  0.9 / Central trim fraction for standard deviation
\char CKWNLFIL= 'calkeywords.nl'
\char CKWILIST= 'inputlist_coadd'
\char CKWKLIST= 'calkeywords_inputlist_coadd2d.dat'
\char CKWEINFO= 'ensemble_info.txt'
\char CKWOFIL1= 'coadd2d.fits'
\char CKWLGFIL= 'stdout  '
\HISTORY PROCESS 2010/09/25 15:14:51
\HISTORY profile v3.6  (integrate (library) v1.31, nl_and_params v1.9)
\HISTORY INFILE = coadd2d.fits
\HISTORY WAVSAMP_FILE = ./cal/wavsamp.tbl
\HISTORY N_CUTS = 400,
\HISTORY BMASKFILE = coadd2d_amask.fits
\HISTORY BMASKFILE_FATAL = 29056,
\HISTORY NAMELIST_FILE = ./cdf/profile.nl
\int CHNLNUM = 1
\int FOVID   = 50
\char HISTORY PROCESS 2010/09/25 15:14:52
\char HISTORY extract v5.6  (integrate (library) v1.31, nl_and_params v1.9)
\char HISTORY INFILE = coadd2d.fits
\char HISTORY RIDGE_TABLE = ridge.tbl
\char HISTORY BMASKFILE = coadd2d_amask.fits
\char HISTORY UNCERFILE = coadd2d_unc.fits
\char HISTORY BMASKFATAL = 29056,
\char HISTORY NAMELIST_FILE = ./cdf/extract.nl
\char HISTORY FULL_SLIT_EXTRACT = 1,
\char HISTORY FLAG_NAN_DROP = 1
\float FCON_UNC = 124.500000
\char HISTORY PROCESS 2010/09/25 15:14:53
\char HISTORY irs_tune v3.4  (nl_and_params v1.9)
\char HISTORY INFILE = extract.tbl
\char HISTORY INFILE = ./cal/fluxcon.tbl
\char HISTORY UP_DOWN_MODE = tune_down
\char HISTORY APPLY = 3,
\char HISTORY NAMELIST_FILE = ./cdf/irs_tune.nl
|order        |wavelength         |flux_density        |error               |bit-flag            |
|int          |real               |real                |real                |int                 |
|             |                   |Jy                  |Jy                  |                    |
 20            9.88629             1.542067             0.003572             128                  
 20            9.89390             4.554812             0.008076             0                    
 20            9.90151             4.642721             0.008523             0                    
 20            9.90913             4.552582             0.007407             0                    
 20            9.91675             4.467804             0.007512             0                    
 20            9.92439             4.473092             0.008364             0                    
 20            9.93202             4.498548             0.007395             0                    
 20            9.93967             4.491313             0.008605             0                    
 20            9.94731             4.516558             0.006876             0                    
 20            9.95497             4.540271             0.006057             0                    
 20            9.96263             4.558434             0.005317             0                    
 20            9.97030             4.562020             0.005109             0                    
 20            9.97797             4.570695             0.005366             0                    
 20            9.98565             4.692947             0.004832             0                    
 20            9.99333             4.688789             0.004483             0                    
 20            10.00102            4.622673             0.004493             0                    
 20            10.00872            4.630766             0.004568             0                    
 20            10.01642            4.639872             0.004449             0                    
 20            10.02413            4.615238             0.004273             0                    
 20            10.03184            4.634871             0.004543             0                    
 20            10.03956            4.665357             0.004826             0                    
 20            10.04729            4.659332             0.004722             0                    
 20            10.05502            4.628725             0.004752             0                    
 20            10.06276            4.656754             0.005162             0                    
 20            10.07050            4.653896             0.005321             0                    
 20            10.07825            4.651566             0.005122             0                    
 20            10.08600            4.650842             0.005662             0                    
 20            10.09377            4.651606             0.005921             0                    
 20            10.10153            4.720261             0.005447             0                    
 20            10.10931            4.732947             0.005231             0                    
 20            10.11709            4.784792             0.005318             0                    
 20            10.12487            4.804990             0.005207             0                    
 20            10.13266            4.825120             0.004726             0                    
 20            10.14046            4.809051             0.004760             0                    
 20            10.14826            4.803944             0.004688             0                    
 20            10.15607            4.845675             0.004490             0                    
 20            10.16389            4.845469             0.004417             0                    
 20            10.17171            4.825603             0.004565             0                    
 20            10.17954            4.812470             0.004377             0                    
 20            10.18737            4.823129             NaN                  12288                
 20            10.19521            4.835238             NaN                  12288                
 20            10.20306            4.842121             0.004065             0                    
 20            10.21091            4.871358             0.004078             0                    
 20            10.21876            4.899617             0.003937             0                    
 20            10.22663            4.877088             0.003971             0                    
 20            10.23450            4.866253             0.004159             0                    
 20            10.24237            4.898951             0.004118             0                    
 20            10.25026            4.940077             0.003930             0                    
 20            10.25814            4.978443             0.004098             0                    
 20            10.26604            4.985707             0.004638             0                    
 20            10.27394            4.999139             0.005002             0                    
 20            10.28184            5.010620             0.004295             0                    
 20            10.28976            4.994797             0.004463             0                    
 20            10.29767            4.986667             0.004735             0                    
 20            10.30560            5.006225             0.004680             0                    
 20            10.31353            4.981295             0.004554             0                    
 20            10.32146            4.978367             0.005055             0                    
 20            10.32941            5.033832             0.005309             0                    
 20            10.33736            5.062240             0.005184             0                    
 20            10.34531            4.992846             0.005066             0                    
 20            10.35327            5.003120             0.005526             0                    
 20            10.36124            5.033469             0.005462             0                    
 20            10.36921            4.933916             0.005310             0                    
 20            10.37719            4.517665             0.004976             0                    
 20            10.38518            4.558708             0.005425             0                    
 20            10.39317            4.564347             0.005476             0                    
 20            10.40117            4.644747             0.005232             0                    
 20            10.40917            5.032661             0.006407             0                    
 20            10.41718            5.004392             0.006782             0                    
 20            10.42520            5.054177             0.006287             0                    
 20            10.43322            5.207584             0.006324             0                    
 20            10.44125            5.376245             0.007211             128                  
 20            10.44928            5.245413             0.008350             128                  
 20            10.45732            5.116066             0.006952             0                    
 20            10.46537            5.060696             0.007168             0                    
 20            10.47342            5.047474             0.007755             0                    
 20            10.48148            5.199409             0.008361             0                    
 20            10.48955            5.849728             0.008507             0                    
 20            10.49762            10.437947            0.010331             0                    
 20            10.50570            22.641605            0.016718             0                    
 20            10.51378            24.130304            0.018872             0                    
 20            10.52188            10.065281            0.011601             0                    
 20            10.52997            5.276776             0.010561             0                    
 20            10.53808            5.063221             0.010143             0                    
 20            10.54618            5.117366             0.010308             0                    
 20            10.55430            5.063964             0.011015             0                    
 20            10.56242            5.072310             0.011662             0                    
 20            10.57055            5.335869             0.012860             0                    
 20            10.57868            5.345160             0.012389             0                    
 20            10.58683            5.099059             NaN                  12416                
 20            10.59497            4.810621             NaN                  12416                
 20            10.60313            4.466917             0.015684             128                  
 20            10.61128            4.342675             0.012175             128                  
 20            10.61945            4.278763             0.013403             128                  
 20            10.62762            3.995389             0.014770             128                  
 20            10.63580            3.883399             0.015822             128                  
 20            10.64398            3.851237             0.017365             128                  
 20            10.65218            3.399948             0.021593             128                  
 20            10.66037            2.830339             0.024128             128                  
 20            10.66858            2.652039             0.025860             128                  
 20            10.67679            2.680343             0.034846             128                  
 20            10.68500            2.193904             0.076034             128                  
 20            10.69322            1.246168             0.103962             128                  
 20            10.70145            0.395188             0.051335             128                  
 19            10.40117            2.041849             0.003289             128                  
 19            10.40917            4.901277             0.005744             0                    
 19            10.41718            4.880869             0.005941             0                    
 19            10.42520            5.032844             0.006461             0                    
 19            10.43322            5.313817             0.006780             0                    
 19            10.44125            5.251273             0.006428             0                    
 19            10.44928            5.052024             0.006673             0                    
 19            10.45732            5.050927             0.007085             0                    
 19            10.46537            5.040634             0.006576             0                    
 19            10.47342            5.017639             0.006140             0                    
 19            10.48148            5.225530             0.006025             0                    
 19            10.48955            6.006774             0.006047             0                    
 19            10.49762            10.872970            0.007749             0                    
 19            10.50570            24.354635            NaN                  12288                
 19            10.51378            23.223122            NaN                  12288                
 19            10.52188            11.516804            0.007503             0                    
 19            10.52997            5.656639             0.004436             0                    
 19            10.53808            5.404099             0.004263             0                    
 19            10.54618            5.441792             0.004354             0                    
 19            10.55430            5.509130             0.004456             0                    
 19            10.56242            5.589322             NaN                  12288                
 19            10.57055            5.676305             NaN                  12288                
 19            10.57868            5.879842             0.004790             0                    
 19            10.58683            5.946112             0.005114             0                    
 19            10.59497            5.674908             0.004802             0                    
 19            10.60313            5.556867             0.004912             0                    
 19            10.61128            5.559986             0.005438             0                    
 19            10.61945            5.624476             0.005580             0                    
 19            10.62762            5.598268             0.005441             0                    
 19            10.63580            5.575870             0.005830             0                    
 19            10.64398            5.585008             0.006074             0                    
 19            10.65218            5.636521             0.005721             0                    
 19            10.66037            5.605442             0.005335             0                    
 19            10.66858            5.645201             0.005288             0                    
 19            10.67679            5.706383             0.005382             0                    
 19            10.68500            5.770854             0.004917             0                    
 19            10.69322            5.808565             0.004828             0                    
 19            10.70145            5.825972             0.004914             0                    
 19            10.70969            5.886948             0.004864             0                    
 19            10.71793            5.988183             0.004598             0                    
 19            10.72618            6.027338             0.004464             0                    
 19            10.73443            6.032726             0.004677             0                    
 19            10.74269            6.045176             0.004550             0                    
 19            10.75096            6.077589             0.004379             0                    
 19            10.75923            6.083697             0.004471             0                    
 19            10.76751            6.089363             0.004650             0                    
 19            10.77580            6.126746             0.004664             0                    
 19            10.78409            6.170820             0.004533             0                    
 19            10.79239            6.194652             0.004508             0                    
 19            10.80069            6.239751             0.004864             0                    
 19            10.80900            6.264165             0.004991             0                    
 19            10.81732            6.223056             0.004649             0                    
 19            10.82565            6.176081             0.004681             0                    
 19            10.83398            6.174688             0.005019             0                    
 19            10.84231            6.234665             0.005192             0                    
 19            10.85066            6.294535             0.005143             0                    
 19            10.85901            6.333217             0.005258             0                    
 19            10.86736            6.377755             0.005612             0                    
 19            10.87573            6.460391             0.005795             0                    
 19            10.88410            6.542156             0.005506             0                    
 19            10.89247            6.543545             0.005699             0                    
 19            10.90085            6.598204             0.006070             0                    
 19            10.90924            6.680880             0.006185             0                    
 19            10.91764            6.703071             0.006009             0                    
 19            10.92604            6.815547             0.006535             0                    
 19            10.93445            6.897333             0.006899             0                    
 19            10.94286            6.951111             0.006840             0                    
 19            10.95128            7.195144             0.006730             0                    
 19            10.95971            7.299533             0.007413             0                    
 19            10.96814            7.578245             0.007606             0                    
 19            10.97658            8.075358             0.007770             0                    
 19            10.98503            8.546092             0.007935             0                    
 19            10.99348            8.882675             0.008614             0                    
 19            11.00194            9.167848             0.009636             0                    
 19            11.01041            9.102147             0.008913             0                    
 19            11.01888            9.004472             0.008957             0                    
 19            11.02736            8.866834             0.009946             0                    
 19            11.03585            8.845775             0.010217             0                    
 19            11.04434            8.693013             0.009731             0                    
 19            11.05284            8.445194             0.009308             128                  
 19            11.06134            8.383687             0.010073             128                  
 19            11.06986            8.148979             0.010605             128                  
 19            11.07837            8.008375             0.009542             128                  
 19            11.08690            7.954648             0.009525             128                  
 19            11.09543            8.074402             0.010790             128                  
 19            11.10397            8.184809             0.011573             128                  
 19            11.11251            8.306625             0.011143             128                  
 19            11.12107            8.557684             0.011914             128                  
 19            11.12962            8.733267             0.012993             128                  
 19            11.13819            9.064580             0.013942             128                  
 19            11.14676            10.192315            0.015362             128                  
 19            11.15534            11.789806            0.016985             128                  
 19            11.16392            13.502704            0.019465             128                  
 19            11.17251            16.279533            0.022563             128                  
 19            11.18111            18.998844            0.024183             128                  
 19            11.18971            20.720903            0.027229             128                  
 19            11.19832            21.460596            0.032150             128                  
 19            11.20694            21.541361            0.037217             128                  
 19            11.21557            20.915144            0.037067             128                  
 19            11.22420            20.291563            0.040921             128                  
 19            11.23283            20.237940            0.038868             128                  
 19            11.24148            17.067860            0.065942             128                  
 19            11.25013            13.092182            0.036918             128                  
 19            11.25879            11.833054            0.034424             128                  
 19            11.26745            11.355909            0.052939             128                  
 19            11.27612            10.055685            0.070223             128                  
 19            11.28480            7.182755             0.043880             128                  
 19            11.29348            0.333093             0.002360             12416                
 18            10.96814            0.081741             0.000221             128                  
 18            10.97658            7.431779             0.010063             128                  
 18            10.98503            8.249901             0.009159             0                    
 18            10.99348            8.634914             0.008258             0                    
 18            11.00194            8.756732             0.007745             0                    
 18            11.01041            8.778636             0.007827             0                    
 18            11.01888            8.707116             0.007102             0                    
 18            11.02736            8.616494             0.006350             0                    
 18            11.03585            8.432963             0.006147             0                    
 18            11.04434            8.237136             0.006180             0                    
 18            11.05284            8.116419             0.006021             0                    
 18            11.06134            8.062009             0.005800             0                    
 18            11.06986            8.027684             0.005799             0                    
 18            11.07837            8.052644             0.006389             0                    
 18            11.08690            8.164096             0.006500             0                    
 18            11.09543            8.141093             0.006200             0                    
 18            11.10397            8.260543             0.006466             0                    
 18            11.11251            8.505186             0.007312             0                    
 18            11.12107            8.855125             0.007647             0                    
 18            11.12962            9.157034             0.007856             0                    
 18            11.13819            9.695577             0.008017             0                    
 18            11.14676            10.430291            0.008452             0                    
 18            11.15534            12.039935            0.008876             0                    
 18            11.16392            13.869114            0.009667             0                    
 18            11.17251            16.153658            0.011067             0                    
 18            11.18111            18.565866            0.012602             0                    
 18            11.18971            20.566425            0.013355             0                    
 18            11.19832            21.687775            0.014314             0                    
 18            11.20694            21.754801            0.013732             0                    
 18            11.21557            21.288151            0.012907             0                    
 18            11.22420            20.841431            0.012413             0                    
 18            11.23283            20.339235            0.012295             0                    
 18            11.24148            19.905388            0.012223             0                    
 18            11.25013            19.479713            0.011783             0                    
 18            11.25879            18.924004            0.011369             0                    
 18            11.26745            18.392933            0.011368             0                    
 18            11.27612            17.806477            0.011102             0                    
 18            11.28480            17.189850            0.010834             0                    
 18            11.29348            16.840050            0.010480             0                    
 18            11.30217            17.038023            0.010908             0                    
 18            11.31087            16.858261            0.011498             0                    
 18            11.31957            15.482613            0.010210             0                    
 18            11.32828            14.543033            0.009759             0                    
 18            11.33700            13.939653            0.009460             0                    
 18            11.34573            13.464330            0.009698             0                    
 18            11.35446            13.056931            0.009369             0                    
 18            11.36319            12.709759            0.009650             0                    
 18            11.37194            12.255577            0.009419             0                    
 18            11.38069            12.047258            0.009352             0                    
 18            11.38945            11.756288            0.009481             0                    
 18            11.39821            11.437596            0.009195             0                    
 18            11.40698            11.161158            0.009127             0                    
 18            11.41576            10.846854            0.008869             0                    
 18            11.42455            10.614749            0.008716             0                    
 18            11.43334            10.521379            0.009018             0                    
 18            11.44214            10.295848            0.008771             0                    
 18            11.45094            10.075766            0.008225             0                    
 18            11.45975            9.943577             0.008481             0                    
 18            11.46857            9.723701             0.008472             0                    
 18            11.47740            9.707714             0.008843             0                    
 18            11.48623            9.619906             0.008131             0                    
 18            11.49507            9.515299             0.008175             0                    
 18            11.50391            9.328876             0.008603             0                    
 18            11.51277            9.338104             0.008574             0                    
 18            11.52162            9.303954             0.008168             0                    
 18            11.53049            9.347349             0.008296             0                    
 18            11.53936            9.300009             0.008837             0                    
 18            11.54824            9.306062             0.008757             0                    
 18            11.55713            9.148628             0.008612             0                    
 18            11.56602            9.076857             0.008561             0                    
 18            11.57492            8.950325             0.008857             0                    
 18            11.58383            8.816606             0.009154             0                    
 18            11.59275            8.807458             0.008893             0                    
 18            11.60167            8.723584             0.008951             0                    
 18            11.61059            8.508490             0.009326             0                    
 18            11.61953            8.474679             0.009393             0                    
 18            11.62847            8.476107             0.009513             0                    
 18            11.63742            8.512405             0.010061             0                    
 18            11.64637            8.443432             0.010893             0                    
 18            11.65534            8.330146             0.010843             0                    
 18            11.66431            8.372920             0.011242             0                    
 18            11.67328            8.307775             0.010734             0                    
 18            11.68226            8.414208             NaN                  12288                
 18            11.69125            8.296863             NaN                  12288                
 18            11.70025            8.338995             0.012430             0                    
 18            11.70925            8.532786             0.013403             0                    
 18            11.71827            8.416713             0.013568             128                  
 18            11.72728            8.279847             0.014897             128                  
 18            11.73631            8.339088             0.014970             128                  
 18            11.74534            7.853096             0.012615             128                  
 18            11.75438            7.616373             0.012066             128                  
 18            11.76342            7.610472             NaN                  12416                
 18            11.77247            7.667320             NaN                  12416                
 18            11.78153            7.450906             0.012988             128                  
 18            11.79060            7.441659             0.012385             128                  
 18            11.79967            7.408026             0.013478             128                  
 18            11.80875            7.328929             0.013984             128                  
 18            11.81784            7.370622             0.014058             128                  
 18            11.82693            7.261499             0.013428             128                  
 18            11.83604            7.294040             0.014785             128                  
 18            11.84514            7.340538             0.016208             128                  
 18            11.85426            7.535316             0.017572             128                  
 18            11.86338            7.626186             0.017087             128                  
 18            11.87251            7.394669             0.018098             128                  
 18            11.88165            7.139085             NaN                  12416                
 18            11.89079            7.038020             NaN                  12416                
 18            11.89994            6.666259             0.054861             128                  
 18            11.90910            6.103446             0.039744             128                  
 18            11.91826            5.800783             0.028162             128                  
 18            11.92743            5.332128             0.088496             128                  
 18            11.93661            4.698936             0.049411             128                  
 18            11.94580            3.861674             0.034708             128                  
 18            11.95499            2.052961             NaN                  12416                
 18            11.96419            0.304810             NaN                  12416                
 17            11.61059            5.573256             0.006606             128                  
 17            11.61953            8.010528             0.007073             0                    
 17            11.62847            7.985581             0.006945             0                    
 17            11.63742            7.884646             0.006603             0                    
 17            11.64637            7.824292             0.006286             0                    
 17            11.65534            7.855993             0.006251             0                    
 17            11.66431            7.828445             0.006441             0                    
 17            11.67328            7.805407             0.006739             0                    
 17            11.68226            7.852301             0.006786             0                    
 17            11.69125            7.854951             0.006806             0                    
 17            11.70025            7.848240             0.007420             0                    
 17            11.70925            7.944194             0.007844             0                    
 17            11.71827            8.033397             0.007858             0                    
 17            11.72728            8.094904             0.007569             0                    
 17            11.73631            8.008773             0.007319             0                    
 17            11.74534            8.015308             NaN                  12288                
 17            11.75438            8.110197             NaN                  12288                
 17            11.76342            8.171737             0.006145             0                    
 17            11.77247            8.161086             0.005789             0                    
 17            11.78153            8.202850             0.005761             0                    
 17            11.79060            8.231170             0.005787             0                    
 17            11.79967            8.241758             NaN                  12288                
 17            11.80875            8.255089             NaN                  12288                
 17            11.81784            8.268878             0.005244             0                    
 17            11.82693            8.313797             0.005356             0                    
 17            11.83604            8.417627             0.005368             0                    
 17            11.84514            8.528615             0.005340             0                    
 17            11.85426            8.556970             0.005403             0                    
 17            11.86338            8.578423             0.005679             0                    
 17            11.87251            8.648940             0.006117             0                    
 17            11.88165            8.772419             0.006026             0                    
 17            11.89079            8.774113             0.006154             0                    
 17            11.89994            8.800952             0.006398             0                    
 17            11.90910            8.882530             NaN                  12288                
 17            11.91826            8.905068             NaN                  12288                
 17            11.92743            8.968935             0.007062             0                    
 17            11.93661            9.037806             0.007308             0                    
 17            11.94580            9.093703             0.007268             0                    
 17            11.95499            9.186080             0.007515             0                    
 17            11.96419            9.246104             0.007474             0                    
 17            11.97340            9.256675             0.007645             0                    
 17            11.98261            9.292024             0.007426             0                    
 17            11.99183            9.344387             0.007282             0                    
 17            12.00106            9.415342             0.006974             0                    
 17            12.01029            9.389411             0.006887             0                    
 17            12.01954            9.332374             0.007023             0                    
 17            12.02879            9.277436             0.006814             0                    
 17            12.03804            9.381186             0.006633             0                    
 17            12.04731            9.370093             0.006431             0                    
 17            12.05658            9.469402             0.006778             0                    
 17            12.06585            9.687825             0.006600             0                    
 17            12.07514            9.542153             0.006482             0                    
 17            12.08443            9.312298             0.006269             0                    
 17            12.09373            9.292639             0.006373             0                    
 17            12.10304            9.371163             0.006478             0                    
 17            12.11235            9.366190             0.006401             0                    
 17            12.12167            9.268586             0.006239             0                    
 17            12.13100            9.239829             0.006307             0                    
 17            12.14034            9.270522             0.006315             0                    
 17            12.14968            9.389375             0.006313             0                    
 17            12.15903            9.367424             NaN                  12288                
 17            12.16838            9.307773             NaN                  12288                
 17            12.17775            9.300692             0.006273             0                    
 17            12.18712            9.270944             0.006421             0                    
 17            12.19650            9.242469             0.006334             0                    
 17            12.20588            9.207631             0.006466             0                    
 17            12.21528            9.271044             0.006526             0                    
 17            12.22468            9.329359             0.006775             0                    
 17            12.23408            9.398751             0.006808             0                    
 17            12.24350            9.461504             0.006871             0                    
 17            12.25292            9.472233             0.006919             0                    
 17            12.26235            9.607660             0.007203             0                    
 17            12.27178            10.103011            0.007756             0                    
 17            12.28123            10.301717            0.008741             0                    
 17            12.29068            10.003511            0.007955             0                    
 17            12.30014            9.853724             NaN                  12288                
 17            12.30960            9.882522             NaN                  12288                
 17            12.31907            9.858910             NaN                  12288                
 17            12.32855            9.912505             NaN                  12288                
 17            12.33804            10.033733            0.008982             0                    
 17            12.34754            10.270409            0.009455             0                    
 17            12.35704            11.559151            0.010120             0                    
 17            12.36655            15.144517            0.012166             0                    
 17            12.37606            15.485558            0.012302             0                    
 17            12.38559            12.488359            0.012559             0                    
 17            12.39512            10.798381            0.011817             0                    
 17            12.40466            10.358625            0.011879             0                    
 17            12.41420            10.459476            0.013434             0                    
 17            12.42375            10.358574            0.013814             0                    
 17            12.43331            10.431298            0.014283             0                    
 17            12.44288            10.511872            0.014245             0                    
 17            12.45246            10.383910            0.013542             0                    
 17            12.46204            10.430120            0.014157             0                    
 17            12.47163            10.813654            0.016577             128                  
 17            12.48123            10.789301            0.018630             128                  
 17            12.49083            10.870927            0.018397             128                  
 17            12.50044            10.080954            0.014766             128                  
 17            12.51006            10.154743            0.015951             128                  
 17            12.51969            10.150807            0.017719             128                  
 17            12.52932            10.307092            0.018453             128                  
 17            12.53897            10.729904            0.018231             12416                
 17            12.54862            11.083050            0.020607             12416                
 17            12.55827            10.885000            0.019559             128                  
 17            12.56794            10.853274            0.019529             128                  
 17            12.57761            11.126225            0.020669             12416                
 17            12.58729            11.152897            0.020364             12416                
 17            12.59697            11.250414            0.020669             128                  
 17            12.60667            10.918238            NaN                  12416                
 17            12.61637            10.904875            NaN                  12416                
 17            12.62608            10.634742            0.022903             128                  
 17            12.63579            10.488604            0.023412             128                  
 17            12.64552            10.054216            0.024997             128                  
 17            12.65525            10.016710            0.030143             128                  
 17            12.66498            9.323394             0.030294             128                  
 17            12.67473            9.472367             0.037898             128                  
 17            12.68448            9.296262             0.087244             128                  
 17            12.69425            7.672026             0.063574             128                  
 17            12.70401            1.642267             0.016376             128                  
 16            12.31907            0.629139             0.000937             128                  
 16            12.32855            8.959021             0.009778             128                  
 16            12.33804            9.094693             0.009432             0                    
 16            12.34754            9.418742             0.008952             0                    
 16            12.35704            10.388614            0.008959             0                    
 16            12.36655            13.933509            0.010480             0                    
 16            12.37606            13.520680            0.009154             0                    
 16            12.38559            11.101803            0.007272             0                    
 16            12.39512            9.863476             0.006516             0                    
 16            12.40466            9.562580             0.006314             0                    
 16            12.41420            9.564713             0.006292             0                    
 16            12.42375            9.647470             0.006148             0                    
 16            12.43331            9.741693             0.006112             0                    
 16            12.44288            9.864782             0.006229             0                    
 16            12.45246            9.947678             0.006506             0                    
 16            12.46204            10.078326            0.006887             0                    
 16            12.47163            10.218934            0.006920             0                    
 16            12.48123            10.352718            0.007411             0                    
 16            12.49083            10.550153            0.007980             0                    
 16            12.50044            10.710328            0.008558             0                    
 16            12.51006            10.902710            0.008811             0                    
 16            12.51969            10.990972            0.008719             0                    
 16            12.52932            11.079535            0.008755             0                    
 16            12.53897            11.256825            0.008784             0                    
 16            12.54862            11.373472            NaN                  12288                
 16            12.55827            11.628084            NaN                  12288                
 16            12.56794            11.888685            0.008185             0                    
 16            12.57761            12.129779            0.008196             0                    
 16            12.58729            12.408809            0.008105             0                    
 16            12.59697            12.601863            0.007860             0                    
 16            12.60667            12.704269            0.007806             0                    
 16            12.61637            12.739776            NaN                  12288                
 16            12.62608            12.759781            NaN                  12288                
 16            12.63579            12.919335            0.007726             0                    
 16            12.64552            12.968544            0.007573             0                    
 16            12.65525            12.858243            0.007316             0                    
 16            12.66498            12.868128            0.007456             0                    
 16            12.67473            12.972860            0.007788             0                    
 16            12.68448            13.309317            0.008174             0                    
 16            12.69425            14.637017            0.008477             0                    
 16            12.70401            16.657148            0.009803             0                    
 16            12.71379            16.720526            0.010317             0                    
 16            12.72357            15.054324            NaN                  12288                
 16            12.73336            14.537405            NaN                  12288                
 16            12.74316            14.464774            0.009301             0                    
 16            12.75297            14.530882            0.009330             0                    
 16            12.76278            15.045185            0.009990             0                    
 16            12.77260            16.165787            0.010599             0                    
 16            12.78243            19.364620            NaN                  12288                
 16            12.79227            31.555027            NaN                  12288                
 16            12.80211            49.201519            NaN                  12288                
 16            12.81197            11.353830            NaN                  12288                
 16            12.82182            81.474495            NaN                  12288                
 16            12.83169            30.190506            NaN                  12288                
 16            12.84157            14.191111            0.010605             0                    
 16            12.85145            12.659094            0.009704             0                    
 16            12.86134            12.335627            0.009506             0                    
 16            12.87123            11.796647            0.009425             0                    
 16            12.88114            11.452165            0.009311             0                    
 16            12.89105            11.146482            0.008571             0                    
 16            12.90097            11.218030            0.008977             0                    
 16            12.91090            13.002748            0.010538             0                    
 16            12.92083            14.003327            0.011150             0                    
 16            12.93078            11.499407            0.009143             0                    
 16            12.94073            10.433731            0.008835             0                    
 16            12.95069            10.363373            0.008770             0                    
 16            12.96065            10.265075            0.008621             0                    
 16            12.97063            10.354291            0.008805             0                    
 16            12.98061            10.300760            0.008612             0                    
 16            12.99060            10.252994            0.008659             0                    
 16            13.00059            10.030520            0.008577             0                    
 16            13.01060            10.150127            0.008767             128                  
 16            13.02061            10.235154            0.008909             128                  
 16            13.03063            10.264080            0.008863             0                    
 16            13.04066            10.176676            0.008959             128                  
 16            13.05069            10.145480            0.009183             128                  
 16            13.06073            10.088172            0.008986             128                  
 16            13.07078            10.031487            0.009017             128                  
 16            13.08084            10.061220            0.009344             128                  
 16            13.09091            9.988268             0.009569             128                  
 16            13.10098            10.071522            0.009421             128                  
 16            13.11106            10.107491            0.009267             128                  
 16            13.12115            10.111300            0.009644             128                  
 16            13.13125            10.036111            0.009857             128                  
 16            13.14136            10.001088            0.009962             128                  
 16            13.15147            10.175808            0.010192             128                  
 16            13.16159            10.133053            NaN                  12416                
 16            13.17172            9.960133             NaN                  12416                
 16            13.18185            10.050511            0.010447             128                  
 16            13.19200            10.122493            0.011135             128                  
 16            13.20215            10.114841            0.010333             128                  
 16            13.21231            9.889411             0.010030             128                  
 16            13.22247            9.893468             0.010235             128                  
 16            13.23265            9.990605             0.010848             128                  
 16            13.24283            10.105305            0.011195             128                  
 16            13.25302            9.889339             0.011094             12416                
 16            13.26322            9.820243             NaN                  12416                
 16            13.27343            9.958163             NaN                  12416                
 16            13.28364            9.917041             0.011962             128                  
 16            13.29386            9.930024             0.012430             128                  
 16            13.30409            10.018191            0.012330             128                  
 16            13.31433            9.927401             0.014264             128                  
 16            13.32458            10.033943            0.016233             128                  
 16            13.33483            10.008396            0.014726             128                  
 16            13.34509            9.744392             0.014554             128                  
 16            13.35536            9.742188             0.015235             128                  
 16            13.36564            9.757027             0.016963             128                  
 16            13.37593            9.613726             0.018969             128                  
 16            13.38622            9.730083             0.021033             128                  
 16            13.39652            10.140551            0.023963             128                  
 16            13.40683            9.504400             0.023898             128                  
 16            13.41715            9.081800             0.023834             128                  
 16            13.42747            8.587152             0.037603             128                  
 16            13.43780            7.715072             0.024931             128                  
 16            13.44814            6.733868             0.022448             128                  
 16            13.45849            6.613111             0.021626             128                  
 16            13.46885            6.488662             0.022602             128                  
 16            13.47921            7.057413             0.027991             128                  
 16            13.48959            7.444260             0.031031             128                  
 16            13.49997            7.611843             0.032081             128                  
 16            13.51036            7.342532             0.039026             128                  
 16            13.52075            6.569313             0.035372             128                  
 16            13.53116            3.310054             0.031387             128                  
 15            13.13125            5.340682             0.005433             128                  
 15            13.14136            9.212909             0.006657             0                    
 15            13.15147            9.255315             0.006741             0                    
 15            13.16159            9.329025             0.006803             0                    
 15            13.17172            9.457597             0.006905             0                    
 15            13.18185            9.595221             0.006909             0                    
 15            13.19200            9.619082             0.007279             0                    
 15            13.20215            9.542606             0.007678             0                    
 15            13.21231            9.551161             0.007886             0                    
 15            13.22247            9.520340             0.008022             0                    
 15            13.23265            9.560842             0.008287             0                    
 15            13.24283            9.543138             0.008117             0                    
 15            13.25302            9.537979             0.008299             0                    
 15            13.26322            9.610697             0.007899             0                    
 15            13.27343            9.677958             0.007109             0                    
 15            13.28364            9.785041             0.006776             0                    
 15            13.29386            9.824949             0.006620             0                    
 15            13.30409            9.844541             0.006365             0                    
 15            13.31433            9.891149             0.006239             0                    
 15            13.32458            9.968102             0.006035             0                    
 15            13.33483            9.961423             0.005976             0                    
 15            13.34509            9.955959             0.005983             0                    
 15            13.35536            10.059736            0.006061             0                    
 15            13.36564            10.128246            0.006039             0                    
 15            13.37593            10.072870            0.006030             0                    
 15            13.38622            10.121226            0.006079             0                    
 15            13.39652            10.239470            0.006385             0                    
 15            13.40683            10.233353            NaN                  12288                
 15            13.41715            10.228601            NaN                  12288                
 15            13.42747            10.364418            0.006873             0                    
 15            13.43780            10.453541            0.007319             0                    
 15            13.44814            10.398652            0.007570             0                    
 15            13.45849            10.511651            0.007894             0                    
 15            13.46885            10.561213            0.007918             0                    
 15            13.47921            10.558914            0.008242             0                    
 15            13.48959            10.628230            0.008291             0                    
 15            13.49997            10.713896            0.008088             0                    
 15            13.51036            10.717476            0.008179             0                    
 15            13.52075            10.942079            0.008174             0                    
 15            13.53116            11.073179            0.008187             0                    
 15            13.54157            11.128509            0.008074             0                    
 15            13.55199            11.156510            0.008089             0                    
 15            13.56242            11.149512            0.007612             0                    
 15            13.57286            11.160957            0.007632             0                    
 15            13.58330            11.105147            0.007498             0                    
 15            13.59375            11.102671            0.007338             0                    
 15            13.60421            11.140461            0.007192             0                    
 15            13.61468            11.097239            0.007126             0                    
 15            13.62516            11.102148            0.006881             0                    
 15            13.63564            11.232228            0.007160             0                    
 15            13.64614            11.236240            0.007064             0                    
 15            13.65664            11.363997            0.007257             0                    
 15            13.66715            11.308398            NaN                  12288                
 15            13.67766            11.221958            NaN                  12288                
 15            13.68819            11.275993            0.007014             0                    
 15            13.69872            11.257965            0.006935             0                    
 15            13.70926            11.274970            0.007013             0                    
 15            13.71981            11.309390            0.006998             0                    
 15            13.73037            11.333514            0.007266             0                    
 15            13.74094            11.320023            0.007045             0                    
 15            13.75151            11.266627            0.007117             0                    
 15            13.76209            11.319050            0.007070             0                    
 15            13.77268            11.556839            0.007321             0                    
 15            13.78328            11.362465            0.007136             0                    
 15            13.79389            11.261868            0.007023             0                    
 15            13.80450            11.345773            0.007091             0                    
 15            13.81513            11.431784            0.007115             0                    
 15            13.82576            11.483088            0.007073             0                    
 15            13.83640            11.556742            0.007089             0                    
 15            13.84705            11.553518            0.007043             0                    
 15            13.85770            11.465266            NaN                  12288                
 15            13.86836            11.563350            NaN                  12288                
 15            13.87904            11.687327            0.007489             0                    
 15            13.88972            11.823044            0.007517             0                    
 15            13.90041            11.807797            0.007578             0                    
 15            13.91110            11.836045            0.007872             0                    
 15            13.92181            11.987619            0.008108             0                    
 15            13.93252            12.191097            0.008140             0                    
 15            13.94324            12.247658            0.008074             0                    
 15            13.95397            12.279970            0.008261             0                    
 15            13.96471            12.340962            0.008701             0                    
 15            13.97546            12.339535            0.009008             0                    
 15            13.98621            12.309608            0.008802             0                    
 15            13.99697            12.346242            0.008858             0                    
 15            14.00774            12.347052            0.009431             0                    
 15            14.01852            12.468216            0.009488             0                    
 15            14.02931            12.538564            0.010155             0                    
 15            14.04011            12.498186            0.009907             0                    
 15            14.05091            12.638701            0.010486             0                    
 15            14.06172            12.721830            0.010711             0                    
 15            14.07254            12.559160            NaN                  12288                
 15            14.08337            12.505239            NaN                  12288                
 15            14.09421            12.654488            0.012623             0                    
 15            14.10506            12.931901            0.013787             0                    
 15            14.11591            12.805877            0.013027             0                    
 15            14.12677            12.791448            0.014451             0                    
 15            14.13764            12.872081            0.015738             0                    
 15            14.14852            13.018452            0.015115             0                    
 15            14.15941            13.032259            0.015875             0                    
 15            14.17031            13.369437            0.015542             0                    
 15            14.18121            13.837279            0.017318             0                    
 15            14.19213            13.135009            0.017890             0                    
 15            14.20305            13.299412            0.016238             0                    
 15            14.21398            13.889316            0.017108             0                    
 15            14.22491            14.004914            0.017025             0                    
 15            14.23586            13.932778            0.017686             0                    
 15            14.24682            13.718198            0.018096             0                    
 15            14.25778            13.084504            0.018318             0                    
 15            14.26875            12.905439            0.018322             0                    
 15            14.27973            13.061870            0.017639             0                    
 15            14.29072            12.915568            0.018753             0                    
 15            14.30172            12.757838            0.019084             0                    
 15            14.31272            12.328179            0.019446             0                    
 15            14.32374            11.811895            0.018181             0                    
 15            14.33476            12.024746            0.019644             0                    
 15            14.34579            12.042857            0.021418             0                    
 15            14.35683            12.119479            0.024475             128                  
 15            14.36788            12.926535            0.031408             128                  
 15            14.37893            12.220714            0.028951             128                  
 15            14.39000            10.615690            0.029948             128                  
 15            14.40107            10.663692            0.039589             128                  
 15            14.41215            8.762711             0.027557             128                  
 15            14.42324            0.305700             0.001436             128                  
 14            14.05091            6.562909             0.006199             128                  
 14            14.06172            11.225138            0.007224             0                    
 14            14.07254            11.279215            0.007121             0                    
 14            14.08337            11.333924            0.007184             0                    
 14            14.09421            11.404406            0.007421             0                    
 14            14.10506            11.568638            0.007783             0                    
 14            14.11591            11.702697            NaN                  12288                
 14            14.12677            11.724828            NaN                  12288                
 14            14.13764            11.963921            0.008922             0                    
 14            14.14852            12.115357            0.009740             0                    
 14            14.15941            12.337384            0.009891             0                    
 14            14.17031            12.479223            0.009985             0                    
 14            14.18121            12.980462            0.009910             0                    
 14            14.19213            12.857209            0.009697             0                    
 14            14.20305            12.821453            0.009221             0                    
 14            14.21398            12.993576            0.009066             0                    
 14            14.22491            13.069024            0.008598             0                    
 14            14.23586            12.938186            0.008048             0                    
 14            14.24682            12.820249            0.007701             0                    
 14            14.25778            12.778257            0.007453             0                    
 14            14.26875            12.746444            0.007481             0                    
 14            14.27973            12.833372            0.007611             0                    
 14            14.29072            12.859385            0.007579             0                    
 14            14.30172            12.783473            0.007346             0                    
 14            14.31272            12.668400            0.007283             0                    
 14            14.32374            12.736050            0.007499             0                    
 14            14.33476            12.952240            0.007872             0                    
 14            14.34579            13.113735            0.008095             0                    
 14            14.35683            13.687580            0.008607             0                    
 14            14.36788            14.267950            0.009312             0                    
 14            14.37893            13.442684            0.009031             0                    
 14            14.39000            13.086428            0.009027             0                    
 14            14.40107            13.113298            0.009274             0                    
 14            14.41215            12.945516            0.009714             0                    
 14            14.42324            13.115502            0.010090             0                    
 14            14.43434            13.251121            0.010027             0                    
 14            14.44545            13.334263            0.010280             0                    
 14            14.45657            13.201984            0.009919             0                    
 14            14.46769            13.305164            0.009926             0                    
 14            14.47883            13.530602            NaN                  12288                
 14            14.48997            13.566455            NaN                  12288                
 14            14.50112            13.542754            NaN                  12288                
 14            14.51228            13.737899            NaN                  12288                
 14            14.52344            13.764265            0.009501             0                    
 14            14.53462            13.803320            0.009132             0                    
 14            14.54580            13.818980            0.009167             0                    
 14            14.55700            13.748446            NaN                  12288                
 14            14.56820            13.992226            NaN                  12288                
 14            14.57941            14.031548            0.009000             0                    
 14            14.59063            14.107684            NaN                  12288                
 14            14.60186            14.256581            NaN                  12288                
 14            14.61309            14.182485            0.009013             0                    
 14            14.62434            14.267738            NaN                  12288                
 14            14.63559            14.267908            NaN                  12288                
 14            14.64686            14.432954            0.008922             0                    
 14            14.65813            14.590601            0.009080             0                    
 14            14.66941            14.621240            0.009055             0                    
 14            14.68070            14.564632            0.008994             0                    
 14            14.69199            14.764300            0.008990             0                    
 14            14.70330            14.953703            0.009001             0                    
 14            14.71461            15.000404            0.009057             0                    
 14            14.72594            15.001367            0.009185             0                    
 14            14.73727            15.158750            0.009366             0                    
 14            14.74861            15.216430            0.009173             0                    
 14            14.75996            15.309206            0.009122             0                    
 14            14.77132            15.362560            0.009247             0                    
 14            14.78268            15.464918            0.009318             0                    
 14            14.79406            15.560310            0.009362             0                    
 14            14.80544            15.511253            0.009357             0                    
 14            14.81684            15.571079            0.009267             0                    
 14            14.82824            15.746611            0.009336             0                    
 14            14.83965            15.730204            0.009340             0                    
 14            14.85107            15.920161            0.009849             0                    
 14            14.86250            15.962170            0.009874             0                    
 14            14.87393            15.890008            0.009832             0                    
 14            14.88538            15.995636            0.010048             0                    
 14            14.89684            16.072506            0.010192             0                    
 14            14.90830            15.993164            0.010144             0                    
 14            14.91977            16.129261            0.010309             0                    
 14            14.93125            16.453756            0.010691             0                    
 14            14.94274            16.549433            0.010793             0                    
 14            14.95424            16.726391            0.011033             0                    
 14            14.96575            16.833771            0.011277             0                    
 14            14.97727            16.829981            0.011315             0                    
 14            14.98879            16.961615            0.011916             0                    
 14            15.00032            17.176800            0.012264             128                  
 14            15.01187            17.242241            0.012131             128                  
 14            15.02342            17.226040            0.012594             128                  
 14            15.03498            16.984312            0.012988             128                  
 14            15.04655            17.233677            0.013688             128                  
 14            15.05813            17.086267            0.013349             128                  
 14            15.06972            16.993357            0.013256             128                  
 14            15.08131            17.094128            0.013821             128                  
 14            15.09292            17.067938            0.013898             128                  
 14            15.10453            17.388266            0.014686             128                  
 14            15.11616            17.315300            0.015063             128                  
 14            15.12779            17.313738            0.015192             128                  
 14            15.13943            17.639864            0.015157             128                  
 14            15.15108            17.284655            0.014852             128                  
 14            15.16274            17.541777            0.015813             128                  
 14            15.17441            17.868692            0.016537             128                  
 14            15.18609            17.935246            0.017098             128                  
 14            15.19777            17.480520            0.014959             128                  
 14            15.20947            17.831320            0.015674             128                  
 14            15.22117            17.711809            0.015177             128                  
 14            15.23288            17.377977            0.015601             128                  
 14            15.24461            17.356297            0.015220             128                  
 14            15.25634            17.592445            0.015354             128                  
 14            15.26808            17.373640            0.014592             128                  
 14            15.27983            17.527744            0.015100             128                  
 14            15.29158            17.284815            0.016089             128                  
 14            15.30335            16.712839            0.015727             128                  
 14            15.31513            17.054409            0.020948             128                  
 14            15.32691            16.976894            0.024931             128                  
 14            15.33871            17.080971            NaN                  12416                
 14            15.35051            17.404812            NaN                  12416                
 14            15.36232            17.380608            0.025116             128                  
 14            15.37415            17.381994            0.024257             128                  
 14            15.38598            17.878399            0.024741             128                  
 14            15.39782            19.094704            0.027991             128                  
 14            15.40967            20.617308            0.032192             128                  
 14            15.42152            17.761436            0.030643             128                  
 14            15.43339            0.192251             0.000859             128                  
 13            15.10453            4.899985             0.004564             128                  
 13            15.11616            16.158892            0.011110             0                    
 13            15.12779            16.368401            0.011799             0                    
 13            15.13943            16.194044            0.012120             0                    
 13            15.15108            16.438578            0.012523             0                    
 13            15.16274            16.469986            0.012652             0                    
 13            15.17441            16.615240            0.012726             0                    
 13            15.18609            16.886915            0.012517             0                    
 13            15.19777            17.035419            0.012345             0                    
 13            15.20947            17.032545            0.011518             0                    
 13            15.22117            17.248430            0.011186             0                    
 13            15.23288            17.207745            0.010900             0                    
 13            15.24461            17.402699            0.010601             0                    
 13            15.25634            17.698774            0.010549             0                    
 13            15.26808            17.658728            0.010009             0                    
 13            15.27983            17.851284            NaN                  12288                
 13            15.29158            18.133873            NaN                  12288                
 13            15.30335            18.042109            0.010408             0                    
 13            15.31513            18.094122            0.010689             0                    
 13            15.32691            18.137369            0.010671             0                    
 13            15.33871            18.324137            0.011134             0                    
 13            15.35051            18.654129            0.011761             0                    
 13            15.36232            18.819214            0.012393             0                    
 13            15.37415            19.057407            0.013178             0                    
 13            15.38598            19.605379            0.013997             0                    
 13            15.39782            20.105257            0.014645             0                    
 13            15.40967            20.310631            0.015023             0                    
 13            15.42152            19.849882            0.014812             0                    
 13            15.43339            19.589344            0.014564             0                    
 13            15.44527            19.972097            0.015077             0                    
 13            15.45715            20.210569            0.015347             0                    
 13            15.46905            20.735674            0.015489             0                    
 13            15.48095            20.754711            0.014673             0                    
 13            15.49286            21.203625            0.014965             0                    
 13            15.50479            21.934870            0.015141             0                    
 13            15.51672            23.867348            0.016667             0                    
 13            15.52866            32.423004            0.023389             0                    
 13            15.54061            53.792564            NaN                  12288                
 13            15.55257            98.723900            NaN                  12288                
 13            15.56454            65.305214            NaN                  12288                
 13            15.57651            31.611515            NaN                  12288                
 13            15.58850            23.382797            0.013769             0                    
 13            15.60049            22.380829            0.013121             0                    
 13            15.61250            22.405872            0.012906             0                    
 13            15.62451            22.686445            0.013453             0                    
 13            15.63654            22.737604            0.013327             0                    
 13            15.64857            22.762730            0.013491             0                    
 13            15.66061            22.808720            0.013760             0                    
 13            15.67266            22.902523            0.013435             0                    
 13            15.68472            23.251791            0.013620             0                    
 13            15.69679            23.705145            0.014593             0                    
 13            15.70887            24.391541            0.015286             0                    
 13            15.72096            24.574854            0.014515             0                    
 13            15.73306            24.096987            0.014300             0                    
 13            15.74517            23.995941            0.014564             0                    
 13            15.75728            24.254107            0.014901             0                    
 13            15.76941            24.923792            0.015779             0                    
 13            15.78154            25.148535            0.015737             0                    
 13            15.79369            24.936493            0.015356             0                    
 13            15.80584            25.159637            0.015456             0                    
 13            15.81800            25.485210            0.015859             0                    
 13            15.83018            25.587721            0.015767             0                    
 13            15.84236            25.863649            0.016014             0                    
 13            15.85455            25.991341            0.015913             0                    
 13            15.86675            26.213902            0.016286             0                    
 13            15.87896            26.235699            0.016103             0                    
 13            15.89118            26.770981            0.016418             0                    
 13            15.90341            27.057070            0.016718             0                    
 13            15.91565            26.823526            0.016173             0                    
 13            15.92789            27.459389            0.016779             0                    
 13            15.94015            27.361677            0.016337             0                    
 13            15.95242            27.205338            0.016046             0                    
 13            15.96469            27.533632            0.016296             0                    
 13            15.97698            28.027065            0.016623             0                    
 13            15.98927            28.386543            0.016757             0                    
 13            16.00158            28.349480            0.016907             128                  
 13            16.01389            28.814146            0.017624             0                    
 13            16.02621            29.115915            0.017766             0                    
 13            16.03855            28.854221            0.017378             128                  
 13            16.05089            28.932800            0.017388             128                  
 13            16.06324            29.462030            0.017738             128                  
 13            16.07560            28.868776            0.017543             128                  
 13            16.08797            29.131578            0.017062             128                  
 13            16.10035            29.613121            NaN                  12288                
 13            16.11274            29.798296            NaN                  12416                
 13            16.12514            29.834265            0.018390             128                  
 13            16.13755            30.111807            0.018519             0                    
 13            16.14997            29.961267            0.018516             0                    
 13            16.16240            30.434515            0.020029             128                  
 13            16.17483            31.040449            0.020494             128                  
 13            16.18728            30.215502            0.019232             0                    
 13            16.19974            31.231302            0.020366             0                    
 13            16.21220            31.631025            0.020967             128                  
 13            16.22468            32.173237            0.022673             128                  
 13            16.23716            30.864580            0.020779             128                  
 13            16.24966            31.308308            0.021677             128                  
 13            16.26216            31.004629            0.021453             128                  
 13            16.27468            32.115810            0.024256             128                  
 13            16.28720            31.561844            0.023717             128                  
 13            16.29973            33.405190            0.028365             128                  
 13            16.31228            33.289875            0.027307             0                    
 13            16.32483            34.057400            0.028057             0                    
 13            16.33739            35.100868            0.030495             0                    
 13            16.34996            35.637020            0.029060             0                    
 13            16.36255            34.466320            0.026946             0                    
 13            16.37514            37.414856            0.030427             0                    
 13            16.38774            38.030682            0.029700             0                    
 13            16.40035            38.206352            0.029647             0                    
 13            16.41297            36.450676            0.026457             0                    
 13            16.42560            37.747524            0.027139             0                    
 13            16.43824            38.103077            0.026792             0                    
 13            16.45089            37.648457            NaN                  12288                
 13            16.46355            37.951466            NaN                  12288                
 13            16.47622            36.541737            0.024602             0                    
 13            16.48890            37.075024            0.025744             0                    
 13            16.50159            37.538052            0.027143             128                  
 13            16.51428            37.707352            0.028199             128                  
 13            16.52699            35.881382            0.027224             128                  
 13            16.53971            36.355877            0.029792             128                  
 13            16.55244            36.500420            0.031228             128                  
 13            16.56518            35.838238            0.032607             128                  
 13            16.57792            34.620770            0.031403             128                  
 13            16.59068            4.284961             0.004903             128                  
 12            16.33739            25.413004            0.020734             128                  
 12            16.34996            31.840290            0.020099             0                    
 12            16.36255            32.606686            0.019850             0                    
 12            16.37514            32.882191            0.019410             0                    
 12            16.38774            33.474194            0.019188             0                    
 12            16.40035            34.481224            0.019662             0                    
 12            16.41297            34.697823            0.020234             0                    
 12            16.42560            34.792332            0.020367             0                    
 12            16.43824            35.046295            0.020945             0                    
 12            16.45089            35.242538            0.021705             0                    
 12            16.46355            35.652950            0.023649             0                    
 12            16.47622            35.063339            0.024086             0                    
 12            16.48890            35.169296            NaN                  12288                
 12            16.50159            35.583366            NaN                  12288                
 12            16.51428            35.168457            NaN                  12288                
 12            16.52699            34.809071            0.027142             0                    
 12            16.53971            35.087288            0.026836             0                    
 12            16.55244            34.913036            0.027440             0                    
 12            16.56518            35.233578            0.025165             0                    
 12            16.57792            35.233109            0.025465             0                    
 12            16.59068            34.775928            0.023981             0                    
 12            16.60345            35.782078            0.025156             0                    
 12            16.61622            35.530727            0.024014             0                    
 12            16.62901            35.875137            0.023035             0                    
 12            16.64181            36.577499            0.022252             0                    
 12            16.65461            36.425320            0.022654             0                    
 12            16.66743            36.881611            0.022603             0                    
 12            16.68026            37.301907            0.023423             0                    
 12            16.69309            37.499535            0.023397             0                    
 12            16.70594            37.873253            0.023443             0                    
 12            16.71879            37.914146            0.023314             0                    
 12            16.73166            38.222588            0.023804             0                    
 12            16.74453            38.313042            0.024235             0                    
 12            16.75742            38.772472            0.026107             0                    
 12            16.77031            39.148323            0.028593             0                    
 12            16.78322            38.853016            0.027177             0                    
 12            16.79613            38.905815            0.026306             0                    
 12            16.80906            39.723476            0.027077             0                    
 12            16.82199            40.209454            0.027577             0                    
 12            16.83494            40.264687            0.032846             0                    
 12            16.84789            39.720165            0.032635             0                    
 12            16.86086            39.941051            0.033228             0                    
 12            16.87383            41.428677            0.034678             0                    
 12            16.88682            41.330872            0.033125             0                    
 12            16.89981            40.813519            0.035585             0                    
 12            16.91282            41.122501            0.035892             0                    
 12            16.92583            42.009262            0.036877             0                    
 12            16.93886            41.924381            0.036724             0                    
 12            16.95189            41.713432            0.037253             0                    
 12            16.96494            42.062752            0.036853             0                    
 12            16.97799            42.742336            0.038662             0                    
 12            16.99106            43.956909            0.040275             0                    
 12            17.00413            43.217949            0.037808             0                    
 12            17.01722            43.683846            0.038418             0                    
 12            17.03031            44.575321            0.039881             0                    
 12            17.04342            44.887806            0.038262             0                    
 12            17.05653            44.677338            0.040182             0                    
 12            17.06966            45.455589            0.040999             0                    
 12            17.08280            46.735241            0.041238             0                    
 12            17.09594            45.533051            0.041242             0                    
 12            17.10910            46.486595            0.040983             0                    
 12            17.12226            46.202023            0.040991             0                    
 12            17.13544            46.702785            0.041178             0                    
 12            17.14863            46.359573            0.039864             0                    
 12            17.16182            46.120049            NaN                  12288                
 12            17.17503            46.823265            NaN                  12288                
 12            17.18824            47.162868            0.041418             0                    
 12            17.20147            47.527111            0.042007             0                    
 12            17.21471            47.350353            0.043371             0                    
 12            17.22796            47.234711            0.041664             0                    
 12            17.24121            49.245888            0.043298             0                    
 12            17.25448            48.825260            NaN                  12288                
 12            17.26776            48.417610            NaN                  12288                
 12            17.28105            47.928204            0.041987             0                    
 12            17.29434            50.043732            0.039890             0                    
 12            17.30765            51.679874            0.044314             0                    
 12            17.32097            50.037342            0.044284             0                    
 12            17.33430            51.430698            0.045797             0                    
 12            17.34764            52.221783            0.044373             0                    
 12            17.36099            51.479542            0.043088             0                    
 12            17.37435            53.368786            0.043234             0                    
 12            17.38772            52.857758            0.042150             0                    
 12            17.40110            52.928658            0.042739             0                    
 12            17.41449            51.807919            0.043696             0                    
 12            17.42789            53.257664            0.042814             0                    
 12            17.44130            52.186329            0.041223             128                  
 12            17.45472            51.681213            0.038831             128                  
 12            17.46816            51.058533            0.039055             128                  
 12            17.48160            52.457745            0.040036             128                  
 12            17.49505            51.461342            0.038287             128                  
 12            17.50851            51.275845            0.036770             128                  
 12            17.52199            53.410473            0.037857             128                  
 12            17.53547            52.611927            NaN                  12416                
 12            17.54896            52.072994            NaN                  12416                
 12            17.56247            52.110855            0.032703             0                    
 12            17.57598            52.795811            0.032411             0                    
 12            17.58951            52.850895            0.032588             0                    
 12            17.60304            52.372738            0.032688             0                    
 12            17.61659            51.666462            0.152188             128                  
 12            17.63015            52.915154            0.090480             128                  
 12            17.64371            52.991421            0.032519             128                  
 12            17.65729            52.366821            0.032906             128                  
 12            17.67088            55.279476            0.039394             128                  
 12            17.68448            57.001858            0.037505             128                  
 12            17.69809            56.116177            0.037350             0                    
 12            17.71170            54.250908            0.036855             0                    
 12            17.72533            54.811985            0.036590             0                    
 12            17.73897            54.991196            0.038928             0                    
 12            17.75263            56.464550            0.042362             0                    
 12            17.76629            55.274109            0.040537             0                    
 12            17.77996            59.759445            0.046128             0                    
 12            17.79364            56.051292            0.043851             0                    
 12            17.80733            55.087765            0.042023             0                    
 12            17.82104            57.529308            0.043346             128                  
 12            17.83475            56.160107            0.042622             128                  
 12            17.84847            54.237217            0.039116             128                  
 12            17.86221            55.028175            0.039181             128                  
 12            17.87595            57.676254            0.040326             128                  
 12            17.88971            59.589157            0.040138             128                  
 12            17.90348            57.549187            0.039895             128                  
 12            17.91725            55.276554            0.036004             128                  
 12            17.93104            27.865025            0.023996             128                  
 11            17.76629            0.534664             0.000795             128                  
 11            17.77996            44.450363            0.036921             128                  
 11            17.79364            51.417534            0.036891             0                    
 11            17.80733            51.434444            0.034218             0                    
 11            17.82104            51.630474            0.033577             0                    
 11            17.83475            52.719978            0.032686             0                    
 11            17.84847            54.431488            0.032765             0                    
 11            17.86221            54.030720            0.033611             0                    
 11            17.87595            55.955303            0.035328             0                    
 11            17.88971            56.207645            0.035575             0                    
 11            17.90348            54.943062            0.034756             0                    
 11            17.91725            54.927582            0.033376             0                    
 11            17.93104            55.351360            0.034875             0                    
 11            17.94484            55.264950            0.038592             0                    
 11            17.95865            54.993908            0.039820             0                    
 11            17.97247            56.171719            0.042252             0                    
 11            17.98630            55.827175            0.043280             0                    
 11            18.00014            55.697456            0.044167             0                    
 11            18.01399            56.713264            0.045280             0                    
 11            18.02785            56.674873            0.045575             0                    
 11            18.04173            57.786541            0.044785             0                    
 11            18.05561            57.423470            0.050564             0                    
 11            18.06951            57.387302            0.048997             0                    
 11            18.08341            57.152000            0.043224             0                    
 11            18.09733            57.961121            0.041853             0                    
 11            18.11125            60.290302            0.043060             0                    
 11            18.12519            59.811127            0.043900             0                    
 11            18.13914            59.381706            0.042953             0                    
 11            18.15310            58.974495            0.042847             0                    
 11            18.16706            60.528168            0.043769             0                    
 11            18.18104            60.795483            0.042313             0                    
 11            18.19504            61.085869            0.041515             0                    
 11            18.20904            60.453938            0.042089             0                    
 11            18.22305            59.589130            0.041342             0                    
 11            18.23707            61.466797            0.040691             0                    
 11            18.25111            61.882378            0.040710             0                    
 11            18.26515            61.914608            0.042266             0                    
 11            18.27921            62.664639            0.043240             0                    
 11            18.29327            63.086246            0.045110             0                    
 11            18.30735            62.622150            0.045135             0                    
 11            18.32144            63.139851            0.047028             0                    
 11            18.33554            63.956444            0.053739             0                    
 11            18.34965            64.842102            0.053138             0                    
 11            18.36377            64.733772            0.049062             0                    
 11            18.37790            65.934807            0.049945             0                    
 11            18.39204            64.412994            0.051311             0                    
 11            18.40619            64.912491            0.052189             0                    
 11            18.42036            65.346634            0.062818             0                    
 11            18.43453            65.489220            0.063322             0                    
 11            18.44872            65.394218            0.065052             0                    
 11            18.46292            67.371307            0.055403             128                  
 11            18.47712            67.803307            0.054550             128                  
 11            18.49134            70.042313            0.056286             0                    
 11            18.50557            67.839195            NaN                  12288                
 11            18.51981            67.038757            NaN                  12288                
 11            18.53406            68.732399            0.077265             0                    
 11            18.54833            69.056458            0.077630             0                    
 11            18.56260            67.196045            0.057233             0                    
 11            18.57688            70.628136            NaN                  12288                
 11            18.59118            71.664146            NaN                  12288                
 11            18.60549            70.794464            0.062499             0                    
 11            18.61980            73.135025            0.081984             0                    
 11            18.63413            73.131950            0.082622             0                    
 11            18.64847            75.759071            0.078380             0                    
 11            18.66282            81.641113            0.084458             0                    
 11            18.67718            109.299393           NaN                  12288                
 11            18.69156            162.564590           NaN                  12288                
 11            18.70594            3.346643             NaN                  12288                
 11            18.72033            11.461637            NaN                  12288                
 11            18.73474            99.776672            NaN                  12288                
 11            18.74916            85.514870            0.094598             128                  
 11            18.76359            80.037056            0.063268             128                  
 11            18.77802            75.435387            0.061877             0                    
 11            18.79247            72.981537            0.061809             0                    
 11            18.80694            74.466415            0.067018             0                    
 11            18.82141            76.457748            0.068126             0                    
 11            18.83589            77.160065            0.065984             0                    
 11            18.85039            74.146332            0.059379             0                    
 11            18.86489            75.488144            0.061420             0                    
 11            18.87941            75.946274            0.059598             0                    
 11            18.89394            77.343262            0.060041             128                  
 11            18.90848            77.005516            0.058578             128                  
 11            18.92303            76.894844            0.057497             0                    
 11            18.93759            81.464081            0.060841             0                    
 11            18.95216            79.778755            0.058663             0                    
 11            18.96675            76.973671            0.055587             0                    
 11            18.98134            79.977798            0.055177             0                    
 11            18.99595            82.194519            0.059088             0                    
 11            19.01057            77.084694            0.054426             0                    
 11            19.02520            77.939774            0.057542             0                    
 11            19.03984            79.357986            0.053633             128                  
 11            19.05449            82.778313            0.053978             128                  
 11            19.06915            85.900345            NaN                  12416                
 11            19.08382            79.793030            NaN                  12416                
 11            19.09851            78.050255            0.050680             0                    
 11            19.11321            81.270706            0.061289             128                  
 11            19.12792            81.149963            0.054014             128                  
 11            19.14263            78.660294            0.053136             128                  
 11            19.15737            79.652390            0.056355             128                  
 11            19.17211            80.103722            0.057295             128                  
 11            19.18686            79.374275            0.056044             128                  
 11            19.20163            81.031769            0.058727             128                  
 11            19.21640            80.854713            0.060457             128                  
 11            19.23119            76.611511            0.059079             0                    
 11            19.24599            82.662079            0.064132             0                    
 11            19.26080            85.177483            0.063883             0                    
 11            19.27562            81.293037            0.061930             0                    
 11            19.29045            90.849503            0.069326             0                    
 11            19.30530            81.819786            0.061749             0                    
 11            19.32015            84.837425            0.061066             0                    
 11            19.33502            82.882393            0.061857             128                  
 11            19.34990            84.474739            0.059159             128                  
 11            19.36479            83.028893            0.057028             128                  
 11            19.37969            82.255096            0.056627             128                  
 11            19.39461            77.956078            0.049945             128                  
 11            19.40953            80.612282            0.050448             128                  
 11            19.42447            81.002968            0.052126             128                  
 11            19.43941            78.512360            0.051133             128                  
 11            19.45437            77.090736            0.048567             128                  
 11            19.46934            83.761292            0.055198             128                  
 11            19.48433            79.706612            0.869899             128                  
 11            19.49932            77.013947            0.144790             128                  
 11            19.51432            21.163681            0.020721             128                  
